Frecuencia(Hz),"	mm/Seg(PC)"
0.3125,0.056173
0.46875,0.056173
0.625,0.110702
0.78125,0.094809
0.9375,0.103577
1.09375,0.056173
1.25,0.056173
1.40625,0.113442
1.5625,0.092617
1.71875,0.105221
1.875,0.113442
2.03125,0.08056
2.1875,0.070696
2.34375,0.073984
2.5,0.046308
2.65625,0.049597
2.8125,0.057269
2.96875,0.052611
3.125,0.053159
3.28125,0.057269
3.4375,0.057269
3.59375,0.048227
3.75,0.027401
3.90625,0.027264
4.0625,0.041924
4.21875,0.041376
4.375,0.053159
4.53125,0.044664
4.6875,0.029457
4.84375,0.03754
5,0.041924
5.15625,0.041924
5.3125,0.034389
5.46875,0.0348
5.625,0.038362
5.78125,0.031238
5.9375,0.021647
6.09375,0.025894
6.25,0.028634
6.40625,0.027949
6.5625,0.032197
6.71875,0.030827
6.875,0.024524
7.03125,0.016509
7.1875,0.0174
7.34375,0.020277
7.5,0.014523
7.65625,0.012057
7.8125,0.01007
7.96875,0.013153
8.125,0.016509
8.28125,0.015413
8.4375,0.014934
8.59375,0.013975
8.75,0.016989
8.90625,0.018496
9.0625,0.02014
9.21875,0.016989
9.375,0.014317
9.53125,0.016304
9.6875,0.019455
9.84375,0.019181
10,0.016509
10.15625,0.01877
10.3125,0.018496
10.46875,0.017811
10.625,0.013632
10.78125,0.010481
10.9375,0.01329
11.09375,0.009111
11.25,0.009453
11.40625,0.006987
11.5625,0.006405
11.71875,0.007809
11.875,0.007022
12.03125,0.007809
12.1875,0.007467
12.34375,0.005789
12.5,0.007364
12.65625,0.007159
12.8125,0.007261
12.96875,0.008494
13.125,0.009591
13.28125,0.01192
13.4375,0.010481
13.59375,0.008905
13.75,0.008049
13.90625,0.008255
14.0625,0.011509
14.21875,0.013084
14.375,0.009933
14.53125,0.008597
14.6875,0.008049
14.84375,0.005652
15,0.005343
15.15625,0.007467
15.3125,0.006371
15.46875,0.006234
15.625,0.005343
15.78125,0.004453
15.9375,0.003494
16.09375,0.002757
16.25,0.003511
16.40625,0.00274
16.5625,0.003237
16.71875,0.004127
16.875,0.002278
17.03125,0.002012
17.1875,0.001644
17.34375,0.0031
17.5,0.003733
17.65625,0.002098
17.8125,0.001618
17.96875,0.002569
18.125,0.003117
18.28125,0.003545
18.4375,0.002432
18.59375,0.002483
18.75,0.002432
18.90625,0.003203
19.0625,0.003425
19.21875,0.002038
19.375,0.002038
19.53125,0.003459
19.6875,0.003237
19.84375,0.002149
20,0.001952
20.15625,0.001661
20.3125,0.001687
20.46875,0.001713
20.625,0.001841
20.78125,0.001284
20.9375,0.000976
21.09375,0.001439
21.25,0.001773
21.40625,0.002098
21.5625,0.001901
21.71875,0.002432
21.875,0.00262
22.03125,0.002226
22.1875,0.002518
22.34375,0.002278
22.5,0.00131
22.65625,0.001396
22.8125,0.001524
22.96875,0.001447
23.125,0.002175
23.28125,0.002877
23.4375,0.003271
23.59375,0.003066
23.75,0.003733
23.90625,0.003322
24.0625,0.002843
24.21875,0.003579
24.375,0.011303
24.53125,0.013838
24.6875,0.006028
24.84375,0.004076
25,0.002586
25.15625,0.002483
25.3125,0.00274
25.46875,0.003374
25.625,0.002398
25.78125,0.002278
25.9375,0.002064
26.09375,0.001901
26.25,0.001464
26.40625,0.001601
26.5625,0.001687
26.71875,0.001593
26.875,0.001644
27.03125,0.001379
27.1875,0.001284
27.34375,0.001558
27.5,0.001704
27.65625,0.001447
27.8125,0.001901
27.96875,0.001713
28.125,0.002312
28.28125,0.001755
28.4375,0.00137
28.59375,0.001576
28.75,0.001593
28.90625,0.001952
29.0625,0.001841
29.21875,0.001353
29.375,0.002449
29.53125,0.003579
29.6875,0.002449
29.84375,0.002098
30,0.002098
30.15625,0.002261
30.3125,0.001507
30.46875,0.001867
30.625,0.001841
30.78125,0.001978
30.9375,0.002398
31.09375,0.002098
31.25,0.002518
31.40625,0.002149
31.5625,0.001464
31.71875,0.001952
31.875,0.002449
32.03125,0.002449
32.1875,0.001927
32.34375,0.001644
32.5,0.001524
32.65625,0.002149
32.8125,0.002064
32.96875,0.002757
33.125,0.003271
33.28125,0.003853
33.4375,0.003117
33.59375,0.002261
33.75,0.002672
33.90625,0.00274
34.0625,0.00173
34.21875,0.001901
34.375,0.001927
34.53125,0.001644
34.6875,0.001644
34.84375,0.002432
35,0.003631
35.15625,0.004418
35.3125,0.002449
35.46875,0.001687
35.625,0.001901
35.78125,0.002363
35.9375,0.002261
36.09375,0.001978
36.25,0.002098
36.40625,0.001636
36.5625,0.001952
36.71875,0.001952
36.875,0.001601
37.03125,0.002877
37.1875,0.003048
37.34375,0.002012
37.5,0.014317
37.65625,0.023428
37.8125,0.011372
37.96875,0.006097
38.125,0.002363
38.28125,0.00262
38.4375,0.002363
38.59375,0.00274
38.75,0.00173
38.90625,0.001524
39.0625,0.001533
39.21875,0.003357
39.375,0.003733
39.53125,0.003408
39.6875,0.002518
39.84375,0.001713
40,0.001747
40.15625,0.001713
40.3125,0.002175
40.46875,0.001841
40.625,0.002175
40.78125,0.002843
40.9375,0.002209
41.09375,0.002175
41.25,0.002278
41.40625,0.002483
41.5625,0.002518
41.71875,0.003203
41.875,0.002757
42.03125,0.00179
42.1875,0.001747
42.34375,0.001978
42.5,0.002209
42.65625,0.002261
42.8125,0.001815
42.96875,0.002278
43.125,0.001678
43.28125,0.001413
43.4375,0.002124
43.59375,0.003322
43.75,0.004127
43.90625,0.002363
44.0625,0.002278
44.21875,0.002098
44.375,0.002398
44.53125,0.002432
44.6875,0.002278
44.84375,0.003374
45,0.005138
45.15625,0.004624
45.3125,0.002038
45.46875,0.003066
45.625,0.00298
45.78125,0.002175
45.9375,0.002757
46.09375,0.002792
46.25,0.002149
46.40625,0.002346
46.5625,0.004521
46.71875,0.003905
46.875,0.00596
47.03125,0.00685
47.1875,0.003408
47.34375,0.00298
47.5,0.003631
47.65625,0.004727
47.8125,0.003322
47.96875,0.003853
48.125,0.007604
48.28125,0.006371
48.4375,0.004727
48.59375,0.002843
48.75,0.003117
48.90625,0.008905
49.0625,0.008152
49.21875,0.004692
49.375,0.009933
49.53125,0.012742
49.6875,0.004299
49.84375,0.015208
50,0.022058
50.15625,0.008392
50.3125,0.003511
50.46875,0.002586
50.625,0.00262
50.78125,0.002655
50.9375,0.0031
51.09375,0.002706
51.25,0.001927
51.40625,0.001901
51.5625,0.002098
51.71875,0.002843
51.875,0.00274
52.03125,0.002012
52.1875,0.001841
52.34375,0.001687
52.5,0.001713
52.65625,0.001747
52.8125,0.002012
52.96875,0.001755
53.125,0.001447
53.28125,0.001353
53.4375,0.001927
53.59375,0.001952
53.75,0.001773
53.90625,0.002124
54.0625,0.001867
54.21875,0.001952
54.375,0.001687
54.53125,0.002038
54.6875,0.002792
54.84375,0.002672
55,0.00179
55.15625,0.001841
55.3125,0.001978
55.46875,0.002038
55.625,0.001661
55.78125,0.002149
55.9375,0.003631
56.09375,0.002757
56.25,0.002012
56.40625,0.002432
56.5625,0.002098
56.71875,0.002209
56.875,0.002064
57.03125,0.002432
57.1875,0.002843
57.34375,0.001901
57.5,0.002098
57.65625,0.003066
57.8125,0.003048
57.96875,0.002064
58.125,0.003288
58.28125,0.003066
58.4375,0.00298
58.59375,0.004025
58.75,0.003853
58.90625,0.008392
59.0625,0.006405
59.21875,0.003288
59.375,0.004299
59.53125,0.005309
59.6875,0.01007
59.84375,0.006816
60,0.007261
60.15625,0.011166
60.3125,0.008837
60.46875,0.004692
60.625,0.002124
60.78125,0.003545
60.9375,0.003853
61.09375,0.004127
61.25,0.00435
61.40625,0.002929
61.5625,0.003802
61.71875,0.003853
61.875,0.003014
62.03125,0.004967
62.1875,0.006131
62.34375,0.004076
62.5,0.004453
62.65625,0.00435
62.8125,0.004692
62.96875,0.004247
63.125,0.005035
63.28125,0.006131
63.4375,0.007707
63.59375,0.006542
63.75,0.0062
63.90625,0.00548
64.0625,0.008049
64.21875,0.007912
64.375,0.004555
64.53125,0.006576
64.6875,0.009796
64.84375,0.007809
65,0.004795
65.15625,0.017811
65.3125,0.022058
65.46875,0.010139
65.625,0.006542
65.78125,0.01007
65.9375,0.011029
66.09375,0.010824
66.25,0.010687
66.40625,0.008494
66.5625,0.010687
66.71875,0.011029
66.875,0.006405
67.03125,0.005652
67.1875,0.007261
67.34375,0.015619
67.5,0.019592
67.65625,0.023017
67.8125,0.030416
67.96875,0.011509
68.125,0.005515
68.28125,0.005652
68.4375,0.009728
68.59375,0.009796
68.75,0.007912
68.90625,0.005926
69.0625,0.00709
69.21875,0.007604
69.375,0.009591
69.53125,0.009591
69.6875,0.007261
69.84375,0.007467
70,0.008049
70.15625,0.007467
70.3125,0.007467
70.46875,0.006987
70.625,0.004727
70.78125,0.004196
70.9375,0.005035
71.09375,0.005926
71.25,0.006234
71.40625,0.008152
71.5625,0.006919
71.71875,0.003905
71.875,0.004025
72.03125,0.004299
72.1875,0.003151
72.34375,0.002312
72.5,0.002432
72.65625,0.003117
72.8125,0.00274
72.96875,0.002792
73.125,0.002569
73.28125,0.003733
73.4375,0.004727
73.59375,0.002757
73.75,0.002929
73.90625,0.003579
74.0625,0.002757
74.21875,0.002894
74.375,0.002843
74.53125,0.002449
74.6875,0.003374
74.84375,0.004418
75,0.003117
75.15625,0.004795
75.3125,0.008049
75.46875,0.018496
75.625,0.018907
75.78125,0.005309
75.9375,0.002124
76.09375,0.002569
76.25,0.0031
76.40625,0.00298
76.5625,0.003425
76.71875,0.002586
76.875,0.001576
77.03125,0.001593
77.1875,0.00298
77.34375,0.0031
77.5,0.002149
77.65625,0.001687
77.8125,0.001755
77.96875,0.001524
78.125,0.001524
78.28125,0.001464
78.4375,0.002175
78.59375,0.002672
78.75,0.001242
78.90625,0.002757
79.0625,0.00435
79.21875,0.002398
79.375,0.002124
79.53125,0.001952
79.6875,0.001636
79.84375,0.001678
80,0.001841
80.15625,0.00262
80.3125,0.00262
80.46875,0.002432
80.625,0.001815
80.78125,0.001867
80.9375,0.003374
81.09375,0.002877
81.25,0.002278
81.40625,0.002012
81.5625,0.001396
81.71875,0.001867
81.875,0.001507
82.03125,0.001379
82.1875,0.001019
82.34375,0.000886
82.5,0.001087
82.65625,0.001006
82.8125,0.001327
82.96875,0.001601
83.125,0.001661
83.28125,0.001773
83.4375,0.00155
83.59375,0.001113
83.75,0.001216
83.90625,0.001576
84.0625,0.001576
84.21875,0.000976
84.375,0.000818
84.53125,0.001173
84.6875,0.001464
84.84375,0.001199
85,0.00131
85.15625,0.001396
85.3125,0.001336
85.46875,0.001267
85.625,0.000796
85.78125,0.000933
85.9375,0.000921
86.09375,0.000963
86.25,0.001006
86.40625,0.001173
86.5625,0.001293
86.71875,0.000676
86.875,0.000775
87.03125,0.00131
87.1875,0.001327
87.34375,0.003802
87.5,0.003425
87.65625,0.001173
87.8125,0.000989
87.96875,0.000822
88.125,0.000612
88.28125,0.000531
88.4375,0.000612
88.59375,0.000698
88.75,0.000809
88.90625,0.001293
89.0625,0.001006
89.21875,0.000689
89.375,0.000655
89.53125,0.000676
89.6875,0.000552
89.84375,0.000741
90,0.000788
90.15625,0.000698
90.3125,0.000741
90.46875,0.000565
90.625,0.000963
90.78125,0.001087
90.9375,0.000933
91.09375,0.000843
91.25,0.000921
91.40625,0.000818
91.5625,0.000766
91.71875,0.000779
91.875,0.000754
92.03125,0.000711
92.1875,0.000578
92.34375,0.000698
92.5,0.001267
92.65625,0.002064
92.8125,0.00155
92.96875,0.000599
93.125,0.000591
93.28125,0.000629
93.4375,0.000664
93.59375,0.000689
93.75,0.000664
93.90625,0.000454
94.0625,0.000664
94.21875,0.000711
94.375,0.000831
94.53125,0.000754
94.6875,0.000495
94.84375,0.000509
95,0.00042
95.15625,0.000578
95.3125,0.000629
95.46875,0.000495
95.625,0.002363
95.78125,0.007707
95.9375,0.006371
96.09375,0.001019
96.25,0.001901
96.40625,0.001105
96.5625,0.000509
96.71875,0.000439
96.875,0.000503
97.03125,0.000516
97.1875,0.000557
97.34375,0.000516
97.5,0.000411
97.65625,0.000612
97.8125,0.000963
97.96875,0.001327
98.125,0.000698
98.28125,0.000524
98.4375,0.000488
98.59375,0.002261
98.75,0.00685
98.90625,0.005309
99.0625,0.001075
99.21875,0.001704
99.375,0.001447
99.53125,0.001087
99.6875,0.003682
99.84375,0.024935
100,0.029868
100.1563,0.007809
100.3125,0.001618
100.4688,0.000634
100.625,0.000766
100.7813,0.000664
100.9375,0.000411
101.0938,0.000599
101.25,0.000591
101.4063,0.000488
101.5625,0.000537
101.7188,0.000587
101.875,0.000612
102.0313,0.000495
102.1875,0.000634
102.3438,0.000591
102.5,0.000495
102.6563,0.00042
102.8125,0.000411
102.9688,0.000405
103.125,0.00042
103.2813,0.00039
103.4375,0.000315
103.5938,0.000343
103.75,0.000383
103.9063,0.000355
104.0625,0.000349
104.2188,0.00042
104.375,0.000454
104.5313,0.000362
104.6875,0.000293
104.8438,0.000285
105,0.000315
105.1563,0.000265
105.3125,0.000349
105.4688,0.000334
105.625,0.000321
105.7813,0.000272
105.9375,0.000447
106.0938,0.000524
106.25,0.000328
106.4063,0.00023
106.5625,0.000238
106.7188,0.0003
106.875,0.000355
107.0313,0.000334
107.1875,0.000439
107.3438,0.000349
107.5,0.000321
107.6563,0.0003
107.8125,0.000272
107.9688,0.000343
108.125,0.00046
108.2813,0.000482
108.4375,0.000495
108.5938,0.001644
108.75,0.002261
108.9063,0.00131
109.0625,0.000328
109.2188,0.000495
109.375,0.0003
109.5313,0.000252
109.6875,0.000272
109.8438,0.00039
110,0.000467
110.1563,0.0003
110.3125,0.000467
110.4688,0.000565
110.625,0.000467
110.7813,0.000488
110.9375,0.00039
111.0938,0.000334
111.25,0.000343
111.4063,0.000411
111.5625,0.000377
111.7188,0.000482
111.875,0.004521
112.0313,0.010687
112.1875,0.006576
112.3438,0.000775
112.5,0.000426
112.6563,0.00037
112.8125,0.00046
112.9688,0.000698
113.125,0.000454
113.2813,0.000238
113.4375,0.000355
113.5938,0.000591
113.75,0.000537
113.9063,0.000706
114.0625,0.001156
114.2188,0.001636
114.375,0.000963
114.5313,0.000608
114.6875,0.000668
114.8438,0.000467
115,0.00042
115.1563,0.0003
115.3125,0.000195
115.4688,0.000278
115.625,0.000244
115.7813,0.000202
115.9375,0.000328
116.0938,0.000439
116.25,0.000321
116.4063,0.00023
116.5625,0.000839
116.7188,0.001049
116.875,0.000599
117.0313,0.000411
117.1875,0.000334
117.3438,0.000362
117.5,0.000285
117.6563,0.000315
117.8125,0.000531
117.9688,0.000634
118.125,0.001481
118.2813,0.002569
118.4375,0.0174
118.5938,0.024387
118.75,0.008392
118.9063,0.001216
119.0625,0.000719
119.2188,0.000495
119.375,0.000503
119.5313,0.000552
119.6875,0.000398
119.8438,0.000272
120,0.00042
120.1563,0.005343
120.3125,0.011509
120.4688,0.006645
120.625,0.001019
120.7813,0.000321
120.9375,0.000293
121.0938,0.00042
121.25,0.000524
121.4063,0.000405
121.5625,0.000272
121.7188,0.000516
121.875,0.00095
122.0313,0.000895
122.1875,0.000843
122.3438,0.00262
122.5,0.002518
122.6563,0.001062
122.8125,0.001644
122.9688,0.00173
123.125,0.001182
123.2813,0.000762
123.4375,0.000818
123.5938,0.001336
123.75,0.00095
123.9063,0.000565
124.0625,0.000569
124.2188,0.003237
124.375,0.01007
124.5313,0.007912
124.6875,0.00131
124.8438,0.000629
125,0.000509
125.1563,0.000447
125.3125,0.000524
125.4688,0.000454
125.625,0.000426
125.7813,0.000439
125.9375,0.000664
126.0938,0.000668
126.25,0.000398
126.4063,0.000509
126.5625,0.000377
126.7188,0.000569
126.875,0.000612
127.0313,0.000565
127.1875,0.000818
127.3438,0.000852
127.5,0.000921
127.6563,0.000754
127.8125,0.000599
127.9688,0.000796
128.125,0.000537
128.2813,0.001593
128.4375,0.003048
128.5938,0.00173
128.75,0.000467
128.9063,0.00137
129.0625,0.002012
129.2188,0.000775
129.375,0.00042
129.5313,0.000557
129.6875,0.000509
129.8438,0.00046
130,0.000578
130.1563,0.000801
130.3125,0.000963
130.4688,0.000647
130.625,0.000552
130.7813,0.000612
130.9375,0.001464
131.0938,0.003288
131.25,0.002064
131.4063,0.000591
131.5625,0.000706
131.7188,0.000608
131.875,0.000565
132.0313,0.000766
132.1875,0.001032
132.3438,0.001661
132.5,0.00113
132.6563,0.003459
132.8125,0.00548
132.9688,0.002346
133.125,0.000524
133.2813,0.000587
133.4375,0.000537
133.5938,0.000509
133.75,0.000426
133.9063,0.000509
134.0625,0.000676
134.2188,0.000475
134.375,0.000321
134.5313,0.000426
134.6875,0.000591
134.8438,0.000766
135,0.000698
135.1563,0.000933
135.3125,0.000587
135.4688,0.000599
135.625,0.000788
135.7813,0.000933
135.9375,0.000963
136.0938,0.000685
136.25,0.000454
136.4063,0.000668
136.5625,0.001032
136.7188,0.000963
136.875,0.000745
137.0313,0.000503
137.1875,0.000719
137.3438,0.001242
137.5,0.001006
137.6563,0.000843
137.8125,0.000599
137.9688,0.000432
138.125,0.000383
138.2813,0.000822
138.4375,0.000719
138.5938,0.000509
138.75,0.000732
138.9063,0.000591
139.0625,0.001773
139.2188,0.003322
139.375,0.002124
139.5313,0.001293
139.6875,0.001139
139.8438,0.000741
140,0.000612
140.1563,0.000612
140.3125,0.000856
140.4688,0.001049
140.625,0.001032
140.7813,0.001139
140.9375,0.000908
141.0938,0.000933
141.25,0.001105
141.4063,0.001006
141.5625,0.001087
141.7188,0.001242
141.875,0.000788
142.0313,0.000895
142.1875,0.001293
142.3438,0.000963
142.5,0.000921
142.6563,0.00131
142.8125,0.00113
142.9688,0.000963
143.125,0.001019
143.2813,0.000801
143.4375,0.000552
143.5938,0.000524
143.75,0.000621
143.9063,0.000537
144.0625,0.000754
144.2188,0.000719
144.375,0.001267
144.5313,0.001049
144.6875,0.001481
144.8438,0.001952
145,0.000809
145.1563,0.000878
145.3125,0.000839
145.4688,0.000509
145.625,0.000698
145.7813,0.001032
145.9375,0.001113
146.0938,0.001156
146.25,0.000921
146.4063,0.000775
146.5625,0.001182
146.7188,0.001678
146.875,0.002312
147.0313,0.001533
147.1875,0.000741
147.3438,0.000908
147.5,0.001049
147.6563,0.001019
147.8125,0.000921
147.9688,0.000745
148.125,0.001293
148.2813,0.001636
148.4375,0.001139
148.5938,0.000732
148.75,0.001182
148.9063,0.002346
149.0625,0.002792
149.2188,0.002038
149.375,0.002757
149.5313,0.002012
149.6875,0.00179
149.8438,0.001713
150,0.00149
150.1563,0.001259
150.3125,0.001524
150.4688,0.001678
150.625,0.001773
150.7813,0.00149
150.9375,0.004418
151.0938,0.008905
151.25,0.005412
151.4063,0.001661
151.5625,0.001267
151.7188,0.002261
151.875,0.002226
152.0313,0.000989
152.1875,0.001032
152.3438,0.000921
152.5,0.001267
152.6563,0.001156
152.8125,0.001353
152.9688,0.001421
153.125,0.001293
153.2813,0.001927
153.4375,0.001439
153.5938,0.001216
153.75,0.001327
153.9063,0.001139
154.0625,0.001293
154.2188,0.001396
154.375,0.001687
154.5313,0.002312
154.6875,0.001901
154.8438,0.001524
155,0.001259
155.1563,0.000976
155.3125,0.000878
155.4688,0.001747
155.625,0.001713
155.7813,0.001242
155.9375,0.001379
156.0938,0.001644
156.25,0.001901
156.4063,0.001413
156.5625,0.000565
156.7188,0.001173
156.875,0.00149
157.0313,0.004247
157.1875,0.0174
157.3438,0.018496
157.5,0.004795
157.6563,0.001242
157.8125,0.001225
157.9688,0.002569
158.125,0.002757
158.2813,0.00262
158.4375,0.003905
158.5938,0.003237
158.75,0.001533
158.9063,0.001336
159.0625,0.001019
159.2188,0.000933
159.375,0.000865
159.5313,0.001644
159.6875,0.001353
159.8438,0.000809
160,0.001087
160.1563,0.001576
160.3125,0.001447
160.4688,0.001678
160.625,0.001558
160.7813,0.001439
160.9375,0.002149
161.0938,0.002038
161.25,0.001533
161.4063,0.001704
161.5625,0.001413
161.7188,0.001113
161.875,0.001049
162.0313,0.001533
162.1875,0.001558
162.3438,0.001481
162.5,0.002312
162.6563,0.002012
162.8125,0.002012
162.9688,0.001533
163.125,0.001293
163.2813,0.000818
163.4375,0.001327
163.5938,0.002038
163.75,0.001576
163.9063,0.001225
164.0625,0.000809
164.2188,0.000921
164.375,0.000989
164.5313,0.001006
164.6875,0.001139
164.8438,0.001087
165,0.001259
165.1563,0.000865
165.3125,0.001075
165.4688,0.001413
165.625,0.001267
165.7813,0.00155
165.9375,0.001032
166.0938,0.000599
166.25,0.000766
166.4063,0.000839
166.5625,0.001062
166.7188,0.000933
166.875,0.000719
167.0313,0.000921
167.1875,0.00173
167.3438,0.001927
167.5,0.001644
167.6563,0.001105
167.8125,0.001199
167.9688,0.00155
168.125,0.000908
168.2813,0.000818
168.4375,0.001105
168.5938,0.001032
168.75,0.000706
168.9063,0.000578
169.0625,0.000766
169.2188,0.002706
169.375,0.002792
169.5313,0.001242
169.6875,0.001105
169.8438,0.000921
170,0.000908
170.1563,0.001019
170.3125,0.000856
170.4688,0.000732
170.625,0.00037
170.7813,0.000488
170.9375,0.000642
171.0938,0.001216
171.25,0.001439
171.4063,0.000706
171.5625,0.000843
171.7188,0.000865
171.875,0.000711
172.0313,0.000689
172.1875,0.000544
172.3438,0.000537
172.5,0.000839
172.6563,0.001075
172.8125,0.000843
172.9688,0.000411
173.125,0.000698
173.2813,0.000608
173.4375,0.000775
173.5938,0.000779
173.75,0.000642
173.9063,0.000557
174.0625,0.00037
174.2188,0.000775
174.375,0.000634
174.5313,0.000426
174.6875,0.000447
174.8438,0.000724
175,0.001087
175.1563,0.001139
175.3125,0.001421
175.4688,0.00131
175.625,0.000801
175.7813,0.000612
175.9375,0.000809
176.0938,0.001032
176.25,0.000822
176.4063,0.000621
176.5625,0.000668
176.7188,0.000503
176.875,0.000587
177.0313,0.000587
177.1875,0.000495
177.3438,0.000565
177.5,0.000685
177.6563,0.000963
177.8125,0.001464
177.9688,0.001032
178.125,0.00042
178.2813,0.000531
178.4375,0.000732
178.5938,0.000895
178.75,0.001173
178.9063,0.000933
179.0625,0.000724
179.2188,0.000655
179.375,0.000612
179.5313,0.000796
179.6875,0.001006
179.8438,0.001199
180,0.000839
180.1563,0.000843
180.3125,0.000856
180.4688,0.000488
180.625,0.000578
180.7813,0.000447
180.9375,0.000612
181.0938,0.000621
181.25,0.001447
181.4063,0.001841
181.5625,0.001413
181.7188,0.002209
181.875,0.001593
182.0313,0.000685
182.1875,0.00046
182.3438,0.000488
182.5,0.000503
182.6563,0.000578
182.8125,0.000856
182.9688,0.000775
183.125,0.000531
183.2813,0.000801
183.4375,0.000745
183.5938,0.000895
183.75,0.000524
183.9063,0.000495
184.0625,0.000383
184.2188,0.000509
184.375,0.000766
184.5313,0.000482
184.6875,0.000355
184.8438,0.000454
185,0.000989
185.1563,0.001199
185.3125,0.000439
185.4688,0.000629
185.625,0.000569
185.7813,0.000788
185.9375,0.000818
186.0938,0.000524
186.25,0.000488
186.4063,0.000591
186.5625,0.000822
186.7188,0.000621
186.875,0.000377
187.0313,0.000355
187.1875,0.000343
187.3438,0.000285
187.5,0.000796
187.6563,0.00262
187.8125,0.002312
187.9688,0.000676
188.125,0.001006
188.2813,0.001113
188.4375,0.000629
188.5938,0.000509
188.75,0.000467
188.9063,0.000432
189.0625,0.00042
189.2188,0.000531
189.375,0.000383
189.5313,0.000244
189.6875,0.00023
189.8438,0.000278
190,0.000454
190.1563,0.000537
190.3125,0.000509
190.4688,0.000537
190.625,0.000629
190.7813,0.000608
190.9375,0.000621
191.0938,0.000516
191.25,0.000482
191.4063,0.000552
191.5625,0.000642
191.7188,0.000642
191.875,0.00046
192.0313,0.000557
192.1875,0.000531
192.3438,0.000706
192.5,0.000587
192.6563,0.000745
192.8125,0.000741
192.9688,0.000467
193.125,0.000467
193.2813,0.000482
193.4375,0.000426
193.5938,0.000676
193.75,0.001353
193.9063,0.000963
194.0625,0.000454
194.2188,0.000398
194.375,0.000405
194.5313,0.000362
194.6875,0.000355
194.8438,0.000315
195,0.0003
195.1563,0.000531
195.3125,0.000599
195.4688,0.000377
195.625,0.000334
195.7813,0.000745
195.9375,0.000779
196.0938,0.000569
196.25,0.000503
196.4063,0.000634
196.5625,0.000509
196.7188,0.000315
196.875,0.000426
197.0313,0.000411
197.1875,0.000475
197.3438,0.000706
197.5,0.001336
197.6563,0.00137
197.8125,0.000647
197.9688,0.001396
198.125,0.001216
198.2813,0.000629
198.4375,0.002012
198.5938,0.012194
198.75,0.0174
198.9063,0.006919
199.0625,0.001006
199.2188,0.000565
199.375,0.000531
199.5313,0.000647
199.6875,0.000719
199.8438,0.001199
200,0.001156
200.1563,0.000989
200.3125,0.000439
200.4688,0.000432
200.625,0.000634
200.7813,0.00046
200.9375,0.000405
201.0938,0.000398
201.25,0.000426
201.4063,0.000516
201.5625,0.000377
201.7188,0.000411
201.875,0.000377
202.0313,0.000315
202.1875,0.000265
202.3438,0.000334
202.5,0.00039
202.6563,0.000315
202.8125,0.000362
202.9688,0.000447
203.125,0.000524
203.2813,0.001558
203.4375,0.00131
203.5938,0.000509
203.75,0.000475
203.9063,0.00042
204.0625,0.000426
204.2188,0.000355
204.375,0.000467
204.5313,0.000383
204.6875,0.000398
204.8438,0.00046
205,0.000565
205.1563,0.000537
205.3125,0.00039
205.4688,0.00037
205.625,0.000432
205.7813,0.000349
205.9375,0.0003
206.0938,0.001601
206.25,0.00274
206.4063,0.001353
206.5625,0.000565
206.7188,0.000591
206.875,0.000495
207.0313,0.000655
207.1875,0.00039
207.3438,0.000432
207.5,0.000544
207.6563,0.000475
207.8125,0.000475
207.9688,0.000642
208.125,0.001353
208.2813,0.001006
208.4375,0.000362
208.5938,0.000629
208.75,0.001618
208.9063,0.001593
209.0625,0.000655
209.2188,0.000349
209.375,0.000321
209.5313,0.000293
209.6875,0.000278
209.8438,0.00037
210,0.000544
210.1563,0.000587
210.3125,0.000432
210.4688,0.000531
210.625,0.000475
210.7813,0.000426
210.9375,0.000328
211.0938,0.00021
211.25,0.000224
211.4063,0.000252
211.5625,0.000349
211.7188,0.000454
211.875,0.000475
212.0313,0.000426
212.1875,0.000398
212.3438,0.000426
212.5,0.000544
212.6563,0.000689
212.8125,0.000565
212.9688,0.000495
213.125,0.000355
213.2813,0.000362
213.4375,0.000447
213.5938,0.000578
213.75,0.000531
213.9063,0.000732
214.0625,0.000426
214.2188,0.000482
214.375,0.000495
214.5313,0.000569
214.6875,0.000377
214.8438,0.000334
215,0.000328
215.1563,0.000383
215.3125,0.000557
215.4688,0.000621
215.625,0.000495
215.7813,0.000933
215.9375,0.000621
216.0938,0.001259
216.25,0.001087
216.4063,0.000488
216.5625,0.00039
216.7188,0.000439
216.875,0.000405
217.0313,0.000272
217.1875,0.000467
217.3438,0.000839
217.5,0.000676
217.6563,0.000578
217.8125,0.000398
217.9688,0.000467
218.125,0.000895
218.2813,0.001019
218.4375,0.000599
218.5938,0.00046
218.75,0.000432
218.9063,0.000447
219.0625,0.000362
219.2188,0.000334
219.375,0.000426
219.5313,0.000775
219.6875,0.000565
219.8438,0.000398
220,0.000467
220.1563,0.000732
220.3125,0.00113
220.4688,0.000796
220.625,0.000544
220.7813,0.000328
220.9375,0.000306
221.0938,0.000355
221.25,0.00039
221.4063,0.00037
221.5625,0.000315
221.7188,0.000328
221.875,0.000432
222.0313,0.000503
222.1875,0.000405
222.3438,0.000328
222.5,0.000315
222.6563,0.000495
222.8125,0.000531
222.9688,0.0003
223.125,0.00042
223.2813,0.000426
223.4375,0.00042
223.5938,0.00046
223.75,0.000578
223.9063,0.0031
224.0625,0.007604
224.2188,0.005309
224.375,0.00095
224.5313,0.000252
224.6875,0.000495
224.8438,0.000544
225,0.000432
225.1563,0.000278
225.3125,0.000411
225.4688,0.000544
225.625,0.00042
225.7813,0.000411
225.9375,0.000578
226.0938,0.000426
226.25,0.000278
226.4063,0.000852
226.5625,0.003802
226.7188,0.004076
226.875,0.001006
227.0313,0.000689
227.1875,0.001242
227.3438,0.001019
227.5,0.000258
227.6563,0.000315
227.8125,0.00039
227.9688,0.000482
228.125,0.000334
228.2813,0.000343
228.4375,0.000315
228.5938,0.000362
228.75,0.000398
228.9063,0.000432
229.0625,0.000719
229.2188,0.000762
229.375,0.000689
229.5313,0.000801
229.6875,0.000831
229.8438,0.001006
230,0.000745
230.1563,0.000439
230.3125,0.000447
230.4688,0.000503
230.625,0.000488
230.7813,0.000544
230.9375,0.000591
231.0938,0.000706
231.25,0.000544
231.4063,0.000921
231.5625,0.000933
231.7188,0.000865
231.875,0.000642
232.0313,0.000524
232.1875,0.000398
232.3438,0.000552
232.5,0.00095
232.6563,0.000921
232.8125,0.000724
232.9688,0.000552
233.125,0.000634
233.2813,0.001173
233.4375,0.001225
233.5938,0.000608
233.75,0.000569
233.9063,0.000524
234.0625,0.000647
234.2188,0.00046
234.375,0.000467
234.5313,0.000668
234.6875,0.000775
234.8438,0.000685
235,0.001182
235.1563,0.0031
235.3125,0.003066
235.4688,0.000809
235.625,0.000293
235.7813,0.00037
235.9375,0.000475
236.0938,0.00046
236.25,0.000676
236.4063,0.000426
236.5625,0.000621
236.7188,0.001524
236.875,0.007364
237.0313,0.027675
237.1875,0.027949
237.3438,0.008049
237.5,0.001644
237.6563,0.000809
237.8125,0.000642
237.9688,0.000685
238.125,0.000612
238.2813,0.000711
238.4375,0.000569
238.5938,0.000676
238.75,0.001182
238.9063,0.003237
239.0625,0.003408
239.2188,0.001293
239.375,0.000664
239.5313,0.000488
239.6875,0.000362
239.8438,0.000454
240,0.000516
240.1563,0.00042
240.3125,0.000933
240.4688,0.006302
240.625,0.01281
240.7813,0.007912
240.9375,0.001644
241.0938,0.000587
241.25,0.000488
241.4063,0.00046
241.5625,0.000509
241.7188,0.000516
241.875,0.000475
242.0313,0.000516
242.1875,0.000447
242.3438,0.00046
242.5,0.000719
242.6563,0.000711
242.8125,0.000689
242.9688,0.000698
243.125,0.000398
243.2813,0.000426
243.4375,0.000475
243.5938,0.000343
243.75,0.000343
243.9063,0.000306
244.0625,0.000349
244.2188,0.000355
244.375,0.000355
244.5313,0.000578
244.6875,0.000664
244.8438,0.001199
245,0.000711
245.1563,0.000334
245.3125,0.000349
245.4688,0.00042
245.625,0.000454
245.7813,0.000537
245.9375,0.000447
246.0938,0.00037
246.25,0.000278
246.4063,0.000495
246.5625,0.000377
246.7188,0.00039
246.875,0.000796
247.0313,0.000963
247.1875,0.000544
247.3438,0.000328
247.5,0.000343
247.6563,0.000343
247.8125,0.000488
247.9688,0.00042
248.125,0.000405
248.2813,0.000383
248.4375,0.000732
248.5938,0.000801
248.75,0.000426
248.9063,0.000377
249.0625,0.000439
249.2188,0.000467
249.375,0.000439
249.5313,0.000599
249.6875,0.000565
249.8438,0.000439
250,0.000482
250.1563,0.000537
250.3125,0.000495
250.4688,0.000447
250.625,0.00042
250.7813,0.000362
250.9375,0.000216
251.0938,0.000355
251.25,0.000587
251.4063,0.000383
251.5625,0.000258
251.7188,0.000482
251.875,0.000516
252.0313,0.00046
252.1875,0.000475
252.3438,0.000482
252.5,0.000467
252.6563,0.000383
252.8125,0.000398
252.9688,0.000355
253.125,0.000349
253.2813,0.00042
253.4375,0.00042
253.5938,0.000349
253.75,0.000405
253.9063,0.000447
254.0625,0.000565
254.2188,0.000411
254.375,0.000467
254.5313,0.000689
254.6875,0.000587
254.8438,0.00037
255,0.0003
255.1563,0.000495
255.3125,0.000634
255.4688,0.000355
255.625,0.000315
255.7813,0.00023
255.9375,0.000411
256.0938,0.000557
256.25,0.000467
256.4063,0.000265
256.5625,0.000293
256.7188,0.000482
256.875,0.000612
257.0313,0.000258
257.1875,0.000285
257.3438,0.000355
257.5,0.000224
257.6563,0.000285
257.8125,0.00037
257.9688,0.000306
258.125,0.000244
258.2813,0.000334
258.4375,0.000405
258.5938,0.000362
258.75,0.000202
258.9063,0.000174
259.0625,0.000252
259.2188,0.000321
259.375,0.000244
259.5313,0.000216
259.6875,0.000272
259.8438,0.000315
260,0.000362
260.1563,0.000278
260.3125,0.000349
260.4688,0.000426
260.625,0.000343
260.7813,0.000272
260.9375,0.000343
261.0938,0.0003
261.25,0.000516
261.4063,0.000524
261.5625,0.000447
261.7188,0.000405
261.875,0.000278
262.0313,0.000405
262.1875,0.000488
262.3438,0.000321
262.5,0.000328
262.6563,0.000411
262.8125,0.000285
262.9688,0.000265
263.125,0.000293
263.2813,0.000238
263.4375,0.000328
263.5938,0.000238
263.75,0.000349
263.9063,0.000321
264.0625,0.000265
264.2188,0.000238
264.375,0.000328
264.5313,0.000544
264.6875,0.000831
264.8438,0.000843
265,0.001841
265.1563,0.002312
265.3125,0.001105
265.4688,0.000432
265.625,0.000355
265.7813,0.000293
265.9375,0.000244
266.0938,0.00023
266.25,0.0003
266.4063,0.000252
266.5625,0.000244
266.7188,0.000252
266.875,0.000278
267.0313,0.000195
267.1875,0.000343
267.3438,0.000475
267.5,0.000383
267.6563,0.000252
267.8125,0.00023
267.9688,0.000293
268.125,0.001336
268.2813,0.001704
268.4375,0.000642
268.5938,0.000272
268.75,0.000238
268.9063,0.0003
269.0625,0.000293
269.2188,0.00095
269.375,0.001199
269.5313,0.000531
269.6875,0.00021
269.8438,0.0003
270,0.000272
270.1563,0.000258
270.3125,0.000252
270.4688,0.000224
270.625,0.000216
270.7813,0.000321
270.9375,0.000398
271.0938,0.000293
271.25,0.000405
271.4063,0.000454
271.5625,0.000383
271.7188,0.000306
271.875,0.000398
272.0313,0.000321
272.1875,0.000265
272.3438,0.000265
272.5,0.000244
272.6563,0.000252
272.8125,0.000343
272.9688,0.0003
273.125,0.000161
273.2813,0.00023
273.4375,0.000238
273.5938,0.000238
273.75,0.00021
273.9063,0.000252
274.0625,0.000306
274.2188,0.000608
274.375,0.000685
274.5313,0.00037
274.6875,0.00042
274.8438,0.00046
275,0.000293
275.1563,0.000565
275.3125,0.001413
275.4688,0.001006
275.625,0.000265
275.7813,0.0003
275.9375,0.000334
276.0938,0.00023
276.25,0.00021
276.4063,0.000252
276.5625,0.000634
276.7188,0.000647
276.875,0.000349
277.0313,0.000272
277.1875,0.00021
277.3438,0.00037
277.5,0.000244
277.6563,0.000238
277.8125,0.000202
277.9688,0.000252
278.125,0.000569
278.2813,0.000591
278.4375,0.000732
278.5938,0.000531
278.75,0.000306
278.9063,0.000278
279.0625,0.000439
279.2188,0.000524
279.375,0.000383
279.5313,0.000328
279.6875,0.000293
279.8438,0.000377
280,0.000432
280.1563,0.000741
280.3125,0.000642
280.4688,0.00042
280.625,0.000321
280.7813,0.00039
280.9375,0.000482
281.0938,0.000349
281.25,0.000454
281.4063,0.000454
281.5625,0.000315
281.7188,0.000285
281.875,0.000202
282.0313,0.000265
282.1875,0.000362
282.3438,0.000411
282.5,0.000439
282.6563,0.000278
282.8125,0.000383
282.9688,0.000258
283.125,0.000398
283.2813,0.000377
283.4375,0.000467
283.5938,0.000629
283.75,0.000509
283.9063,0.000591
284.0625,0.000608
284.2188,0.000685
284.375,0.000664
284.5313,0.000557
284.6875,0.000334
284.8438,0.000411
285,0.000495
285.1563,0.000467
285.3125,0.000587
285.4688,0.00131
285.625,0.003802
285.7813,0.0062
285.9375,0.00435
286.0938,0.001841
286.25,0.000788
286.4063,0.000467
286.5625,0.000591
286.7188,0.000293
286.875,0.000321
287.0313,0.000411
287.1875,0.000454
287.3438,0.000377
287.5,0.000482
287.6563,0.00046
287.8125,0.000447
287.9688,0.000334
288.125,0.000362
288.2813,0.000509
288.4375,0.000454
288.5938,0.000544
288.75,0.000621
288.9063,0.000495
289.0625,0.000454
289.2188,0.000524
289.375,0.000591
289.5313,0.000818
289.6875,0.00095
289.8438,0.000788
290,0.001062
290.1563,0.000933
290.3125,0.00039
290.4688,0.00039
290.625,0.000349
290.7813,0.000488
290.9375,0.000432
291.0938,0.000343
291.25,0.000328
291.4063,0.000495
291.5625,0.00037
291.7188,0.00042
291.875,0.000411
292.0313,0.00037
292.1875,0.00039
292.3438,0.000439
292.5,0.000432
292.6563,0.000432
292.8125,0.00037
292.9688,0.000432
293.125,0.00042
293.2813,0.000426
293.4375,0.000306
293.5938,0.0003
293.75,0.000537
293.9063,0.000578
294.0625,0.000432
294.2188,0.000475
294.375,0.000321
294.5313,0.000432
294.6875,0.00037
294.8438,0.000334
295,0.000278
295.1563,0.000202
295.3125,0.000224
295.4688,0.000188
295.625,0.000272
295.7813,0.000343
295.9375,0.000599
296.0938,0.000676
296.25,0.000796
296.4063,0.001507
296.5625,0.000839
296.7188,0.000488
296.875,0.000495
297.0313,0.000278
297.1875,0.000188
297.3438,0.000328
297.5,0.000355
297.6563,0.000599
297.8125,0.000839
297.9688,0.001242
298.125,0.001336
298.2813,0.000711
298.4375,0.000439
298.5938,0.00039
298.75,0.000398
298.9063,0.000569
299.0625,0.000989
299.2188,0.000732
299.375,0.000531
299.5313,0.000745
299.6875,0.006645
299.8438,0.010961
300,0.004727
300.1563,0.000569
300.3125,0.000321
300.4688,0.000315
300.625,0.0003
300.7813,0.000328
300.9375,0.0003
301.0938,0.000293
301.25,0.000244
301.4063,0.000343
301.5625,0.00037
301.7188,0.000475
301.875,0.000383
302.0313,0.000321
302.1875,0.000516
302.3438,0.000482
302.5,0.000315
302.6563,0.000315
302.8125,0.000306
302.9688,0.000383
303.125,0.000272
303.2813,0.000252
303.4375,0.000258
303.5938,0.000216
303.75,0.000224
303.9063,0.000293
304.0625,0.000278
304.2188,0.000238
304.375,0.000293
304.5313,0.0003
304.6875,0.000258
304.8438,0.0003
305,0.000355
305.1563,0.00039
305.3125,0.000334
305.4688,0.000293
305.625,0.000244
305.7813,0.000252
305.9375,0.00039
306.0938,0.000447
306.25,0.000531
306.4063,0.000411
306.5625,0.0003
306.7188,0.000252
306.875,0.000238
307.0313,0.000188
307.1875,0.00023
307.3438,0.000258
307.5,0.000355
307.6563,0.00042
307.8125,0.000426
307.9688,0.000334
308.125,0.000238
308.2813,0.000293
308.4375,0.000238
308.5938,0.000252
308.75,0.000293
308.9063,0.000383
309.0625,0.000426
309.2188,0.00039
309.375,0.000278
309.5313,0.00023
309.6875,0.000278
309.8438,0.000252
310,0.000398
310.1563,0.000524
310.3125,0.000591
310.4688,0.000432
310.625,0.000252
310.7813,0.000252
310.9375,0.000278
311.0938,0.000343
311.25,0.000355
311.4063,0.000188
311.5625,0.000195
311.7188,0.000321
311.875,0.000873
312.0313,0.001006
312.1875,0.000516
312.3438,0.000349
312.5,0.0003
312.6563,0.000343
312.8125,0.000362
312.9688,0.000343
313.125,0.000432
313.2813,0.0003
313.4375,0.000328
313.5938,0.0003
313.75,0.000383
313.9063,0.000537
314.0625,0.000516
314.2188,0.000754
314.375,0.001006
314.5313,0.001464
314.6875,0.001156
314.8438,0.000711
315,0.000503
315.1563,0.000362
315.3125,0.000516
315.4688,0.000557
315.625,0.00046
315.7813,0.000745
315.9375,0.000698
316.0938,0.001379
316.25,0.00131
316.4063,0.000629
316.5625,0.000349
316.7188,0.000278
316.875,0.000537
317.0313,0.000664
317.1875,0.000933
317.3438,0.000878
317.5,0.000432
317.6563,0.000355
317.8125,0.000426
317.9688,0.00042
318.125,0.000852
318.2813,0.001353
318.4375,0.000895
318.5938,0.000377
318.75,0.000258
318.9063,0.000355
319.0625,0.000426
319.2188,0.000377
319.375,0.00046
319.5313,0.000426
319.6875,0.0003
319.8438,0.000334
320,0.000293
320.1563,0.000278
320.3125,0.00039
320.4688,0.00037
320.625,0.000278
320.7813,0.000265
320.9375,0.000265
321.0938,0.000306
321.25,0.000405
321.4063,0.000383
321.5625,0.000321
321.7188,0.000328
321.875,0.000383
322.0313,0.000328
322.1875,0.000188
322.3438,0.000285
322.5,0.000355
322.6563,0.000174
322.8125,0.000181
322.9688,0.000334
323.125,0.000398
323.2813,0.000439
323.4375,0.000878
323.5938,0.001216
323.75,0.002261
323.9063,0.002124
324.0625,0.000655
324.2188,0.001242
324.375,0.001139
324.5313,0.000762
324.6875,0.000612
324.8438,0.000265
325,0.000426
325.1563,0.000293
325.3125,0.000224
325.4688,0.00039
325.625,0.000377
325.7813,0.00037
325.9375,0.000426
326.0938,0.000439
326.25,0.000321
326.4063,0.000252
326.5625,0.000278
326.7188,0.000285
326.875,0.00046
327.0313,0.000482
327.1875,0.0003
327.3438,0.00021
327.5,0.000285
327.6563,0.000355
327.8125,0.000244
327.9688,0.000161
328.125,0.000244
328.2813,0.000334
328.4375,0.000285
328.5938,0.000216
328.75,0.00023
328.9063,0.000377
329.0625,0.000405
329.2188,0.000293
329.375,0.000328
329.5313,0.000426
329.6875,0.00046
329.8438,0.0003
330,0.000328
330.1563,0.000383
330.3125,0.000315
330.4688,0.000258
330.625,0.000293
330.7813,0.000552
330.9375,0.000544
331.0938,0.0003
331.25,0.000265
331.4063,0.000265
331.5625,0.000306
331.7188,0.000265
331.875,0.000315
332.0313,0.000285
332.1875,0.000278
332.3438,0.000244
332.5,0.000328
332.6563,0.000315
332.8125,0.000195
332.9688,0.000216
333.125,0.000216
333.2813,0.000202
333.4375,0.000224
333.5938,0.000265
333.75,0.000202
333.9063,0.000174
334.0625,0.000202
334.2188,0.000195
334.375,0.000202
334.5313,0.000252
334.6875,0.000258
334.8438,0.000202
335,0.000258
335.1563,0.000306
335.3125,0.000306
335.4688,0.000328
335.625,0.000293
335.7813,0.000328
335.9375,0.000293
336.0938,0.00037
336.25,0.00039
336.4063,0.000599
336.5625,0.000711
336.7188,0.000557
336.875,0.000432
337.0313,0.000328
337.1875,0.000265
337.3438,0.000293
337.5,0.000349
337.6563,0.0003
337.8125,0.000238
337.9688,0.000202
338.125,0.000362
338.2813,0.000698
338.4375,0.000544
338.5938,0.000265
338.75,0.00037
338.9063,0.000689
339.0625,0.001075
339.2188,0.000578
339.375,0.000285
339.5313,0.000244
339.6875,0.00021
339.8438,0.000293
340,0.00037
340.1563,0.000328
340.3125,0.000167
340.4688,0.000349
340.625,0.000426
340.7813,0.00037
340.9375,0.000244
341.0938,0.000285
341.25,0.000244
341.4063,0.000265
341.5625,0.000265
341.7188,0.000224
341.875,0.000278
342.0313,0.000306
342.1875,0.000238
342.3438,0.000355
342.5,0.000634
342.6563,0.000775
342.8125,0.000642
342.9688,0.000552
343.125,0.000454
343.2813,0.000328
343.4375,0.000195
343.5938,0.000328
343.75,0.000426
343.9063,0.000475
344.0625,0.000426
344.2188,0.000676
344.375,0.000878
344.5313,0.000612
344.6875,0.000321
344.8438,0.000334
345,0.000454
345.1563,0.000676
345.3125,0.000569
345.4688,0.000698
345.625,0.002346
345.7813,0.003956
345.9375,0.002432
346.0938,0.000676
346.25,0.000475
346.4063,0.000411
346.5625,0.00037
346.7188,0.000349
346.875,0.000377
347.0313,0.000552
347.1875,0.000377
347.3438,0.000244
347.5,0.0003
347.6563,0.000544
347.8125,0.000557
347.9688,0.000355
348.125,0.000224
348.2813,0.000293
348.4375,0.000516
348.5938,0.000516
348.75,0.00042
348.9063,0.000328
349.0625,0.000321
349.2188,0.000426
349.375,0.000524
349.5313,0.000411
349.6875,0.000383
349.8438,0.000405
350,0.000398
350.1563,0.000405
350.3125,0.00023
350.4688,0.000202
350.625,0.000349
350.7813,0.000377
350.9375,0.000265
351.0938,0.000293
351.25,0.000321
351.4063,0.000362
351.5625,0.000383
351.7188,0.000608
351.875,0.00113
352.0313,0.000878
352.1875,0.000447
352.3438,0.000447
352.5,0.000516
352.6563,0.000516
352.8125,0.000293
352.9688,0.000321
353.125,0.00046
353.2813,0.000398
353.4375,0.000439
353.5938,0.001225
353.75,0.002706
353.9063,0.002124
354.0625,0.000537
354.2188,0.000439
354.375,0.000411
354.5313,0.000569
354.6875,0.000668
354.8438,0.000706
355,0.000321
355.1563,0.000475
355.3125,0.001267
355.4688,0.00596
355.625,0.013084
355.7813,0.010139
355.9375,0.002449
356.0938,0.000762
356.25,0.000426
356.4063,0.000321
356.5625,0.00042
356.7188,0.000516
356.875,0.000377
357.0313,0.00042
357.1875,0.000467
357.3438,0.000963
357.5,0.002149
357.6563,0.001952
357.8125,0.000719
357.9688,0.000238
358.125,0.000153
358.2813,0.000238
358.4375,0.000278
358.5938,0.000167
358.75,0.000252
358.9063,0.0003
359.0625,0.000447
359.2188,0.000599
359.375,0.001199
359.5313,0.001113
359.6875,0.000467
359.8438,0.000244
360,0.000377
360.1563,0.000383
360.3125,0.000432
360.4688,0.000321
360.625,0.0003
360.7813,0.00037
360.9375,0.000216
361.0938,0.000244
361.25,0.000516
361.4063,0.000591
361.5625,0.000377
361.7188,0.00023
361.875,0.000181
362.0313,0.000293
362.1875,0.000252
362.3438,0.000174
362.5,0.000153
362.6563,0.000195
362.8125,0.000252
362.9688,0.000238
363.125,0.000306
363.2813,0.000285
363.4375,0.00039
363.5938,0.000711
363.75,0.000676
363.9063,0.000495
364.0625,0.000544
364.2188,0.0003
364.375,0.00021
364.5313,0.000278
364.6875,0.000398
364.8438,0.00042
365,0.000398
365.1563,0.000475
365.3125,0.000878
365.4688,0.002346
365.625,0.002398
365.7813,0.000895
365.9375,0.000426
366.0938,0.000383
366.25,0.000377
366.4063,0.00042
366.5625,0.000355
366.7188,0.0003
366.875,0.000509
367.0313,0.000706
367.1875,0.001524
367.3438,0.001507
367.5,0.000762
367.6563,0.000439
367.8125,0.000315
367.9688,0.000349
368.125,0.000265
368.2813,0.000315
368.4375,0.000321
368.5938,0.00037
368.75,0.00042
368.9063,0.000383
369.0625,0.00037
369.2188,0.000349
369.375,0.000432
369.5313,0.000343
369.6875,0.000258
369.8438,0.000293
370,0.000557
370.1563,0.000591
370.3125,0.000377
370.4688,0.000306
370.625,0.000238
370.7813,0.000272
370.9375,0.000334
371.0938,0.0003
371.25,0.000202
371.4063,0.00023
371.5625,0.000216
371.7188,0.000252
371.875,0.000195
372.0313,0.000362
372.1875,0.00039
372.3438,0.000398
372.5,0.000454
372.6563,0.000405
372.8125,0.000285
372.9688,0.000405
373.125,0.000685
373.2813,0.001182
373.4375,0.00095
373.5938,0.000454
373.75,0.000398
373.9063,0.000285
374.0625,0.000315
374.2188,0.000349
374.375,0.000321
374.5313,0.000293
374.6875,0.000306
374.8438,0.000398
375,0.000475
375.1563,0.00137
375.3125,0.004795
375.4688,0.00596
375.625,0.002672
375.7813,0.000634
375.9375,0.000293
376.0938,0.000328
376.25,0.000495
376.4063,0.000647
376.5625,0.000544
376.7188,0.000383
376.875,0.000447
377.0313,0.000544
377.1875,0.000552
377.3438,0.000383
377.5,0.000411
377.6563,0.000439
377.8125,0.00037
377.9688,0.000315
378.125,0.000334
378.2813,0.000482
378.4375,0.000801
378.5938,0.001006
378.75,0.000621
378.9063,0.000216
379.0625,0.000265
379.2188,0.000306
379.375,0.000321
379.5313,0.000405
379.6875,0.00042
379.8438,0.000285
380,0.000432
380.1563,0.000454
380.3125,0.00039
380.4688,0.000578
380.625,0.000629
380.7813,0.000495
380.9375,0.000516
381.0938,0.000467
381.25,0.000509
381.4063,0.000439
381.5625,0.00039
381.7188,0.000349
381.875,0.000426
382.0313,0.000411
382.1875,0.000285
382.3438,0.000272
382.5,0.000238
382.6563,0.00037
382.8125,0.000362
382.9688,0.000315
383.125,0.000398
383.2813,0.000475
383.4375,0.000557
383.5938,0.00046
383.75,0.000426
383.9063,0.000398
384.0625,0.00037
384.2188,0.000328
384.375,0.000349
384.5313,0.00039
384.6875,0.000315
384.8438,0.00046
385,0.000488
385.1563,0.000762
385.3125,0.001199
385.4688,0.000831
385.625,0.000698
385.7813,0.000398
385.9375,0.00039
386.0938,0.000599
386.25,0.000495
386.4063,0.00042
386.5625,0.000411
386.7188,0.000398
386.875,0.000454
387.0313,0.000886
387.1875,0.000921
387.3438,0.000405
387.5,0.000557
387.6563,0.000698
387.8125,0.00113
387.9688,0.00173
388.125,0.001062
388.2813,0.000482
388.4375,0.000544
388.5938,0.000334
388.75,0.000321
388.9063,0.000475
389.0625,0.000569
389.2188,0.000488
389.375,0.000334
389.5313,0.000516
389.6875,0.000509
389.8438,0.000343
390,0.000495
390.1563,0.000362
390.3125,0.000398
390.4688,0.000467
390.625,0.000398
390.7813,0.000383
390.9375,0.000426
391.0938,0.000355
391.25,0.000509
391.4063,0.000634
391.5625,0.000745
391.7188,0.000779
391.875,0.000655
392.0313,0.000439
392.1875,0.000426
392.3438,0.00037
392.5,0.000482
392.6563,0.000467
392.8125,0.000293
392.9688,0.00042
393.125,0.000426
393.2813,0.000685
393.4375,0.000741
393.5938,0.000634
393.75,0.000467
393.9063,0.000447
394.0625,0.000439
394.2188,0.000188
394.375,0.00021
394.5313,0.000272
394.6875,0.000285
394.8438,0.000285
395,0.000895
395.1563,0.001747
395.3125,0.001242
395.4688,0.000383
395.625,0.000321
395.7813,0.000306
395.9375,0.000238
396.0938,0.000181
396.25,0.000216
396.4063,0.00021
396.5625,0.000252
396.7188,0.00021
396.875,0.000321
397.0313,0.000544
397.1875,0.000349
397.3438,0.00037
397.5,0.000355
397.6563,0.000377
397.8125,0.00046
397.9688,0.000629
398.125,0.000698
398.2813,0.000362
398.4375,0.000293
398.5938,0.000355
398.75,0.000306
398.9063,0.000265
399.0625,0.000334
399.2188,0.000383
399.375,0.000315
399.5313,0.000383
399.6875,0.001113
399.8438,0.001105
400,0.000432
400.1563,0.000278
400.3125,0.000285
400.4688,0.000252
400.625,0.0003
400.7813,0.000426
400.9375,0.000383
401.0938,0.000328
401.25,0.000398
401.4063,0.000328
401.5625,0.000405
401.7188,0.000732
401.875,0.000698
402.0313,0.00042
402.1875,0.00037
402.3438,0.000398
402.5,0.00037
402.6563,0.000355
402.8125,0.000306
402.9688,0.000224
403.125,0.00042
403.2813,0.00046
403.4375,0.000447
403.5938,0.000642
403.75,0.000587
403.9063,0.000634
404.0625,0.000411
404.2188,0.000315
404.375,0.000315
404.5313,0.000238
404.6875,0.00021
404.8438,0.000321
405,0.000587
405.1563,0.000591
405.3125,0.000432
405.4688,0.000334
405.625,0.000306
405.7813,0.000343
405.9375,0.000321
406.0938,0.000405
406.25,0.000578
406.4063,0.000516
406.5625,0.000509
406.7188,0.000629
406.875,0.001105
407.0313,0.000724
407.1875,0.000355
407.3438,0.000482
407.5,0.000509
407.6563,0.000355
407.8125,0.000258
407.9688,0.000349
408.125,0.000432
408.2813,0.000321
408.4375,0.000293
408.5938,0.000377
408.75,0.000328
408.9063,0.000265
409.0625,0.00023
409.2188,0.000126
409.375,0.000343
409.5313,0.000377
409.6875,0.000328
409.8438,0.000328
410,0.000439
410.1563,0.000447
410.3125,0.000411
410.4688,0.000321
410.625,0.000265
410.7813,0.0003
410.9375,0.000293
411.0938,0.000475
411.25,0.000599
411.4063,0.000495
411.5625,0.000355
411.7188,0.000398
411.875,0.000202
412.0313,0.000552
412.1875,0.000557
412.3438,0.000252
412.5,0.000195
412.6563,0.000244
412.8125,0.000272
412.9688,0.00042
413.125,0.00042
413.2813,0.000355
413.4375,0.00042
413.5938,0.000328
413.75,0.0003
413.9063,0.000426
414.0625,0.000495
414.2188,0.000377
414.375,0.000349
414.5313,0.000711
414.6875,0.002038
414.8438,0.006576
415,0.007809
415.1563,0.003459
415.3125,0.001113
415.4688,0.000426
415.625,0.00046
415.7813,0.000569
415.9375,0.000405
416.0938,0.001139
416.25,0.002398
416.4063,0.002038
416.5625,0.000719
416.7188,0.000349
416.875,0.000377
417.0313,0.000315
417.1875,0.000272
417.3438,0.000405
417.5,0.000509
417.6563,0.000439
417.8125,0.000398
417.9688,0.000321
418.125,0.000278
418.2813,0.000475
418.4375,0.000544
418.5938,0.000258
418.75,0.00023
418.9063,0.000265
419.0625,0.000224
419.2188,0.000321
419.375,0.000293
419.5313,0.000362
419.6875,0.000315
419.8438,0.000238
420,0.000355
420.1563,0.000315
420.3125,0.000377
420.4688,0.000447
420.625,0.000482
420.7813,0.00039
420.9375,0.000668
421.0938,0.000621
421.25,0.000343
421.4063,0.000349
421.5625,0.0003
421.7188,0.000334
421.875,0.000321
422.0313,0.000349
422.1875,0.000293
422.3438,0.000321
422.5,0.000244
422.6563,0.000306
422.8125,0.000328
422.9688,0.000328
423.125,0.000328
423.2813,0.000524
423.4375,0.000552
423.5938,0.000411
423.75,0.000349
423.9063,0.000244
424.0625,0.000252
424.2188,0.000216
424.375,0.000265
424.5313,0.00037
424.6875,0.001156
424.8438,0.001636
425,0.000908
425.1563,0.000383
425.3125,0.00039
425.4688,0.000285
425.625,0.000362
425.7813,0.000405
425.9375,0.000328
426.0938,0.000265
426.25,0.000252
426.4063,0.000552
426.5625,0.000873
426.7188,0.000655
426.875,0.000439
427.0313,0.000516
427.1875,0.000706
427.3438,0.000557
427.5,0.000475
427.6563,0.000411
427.8125,0.000454
427.9688,0.000467
428.125,0.000377
428.2813,0.000405
428.4375,0.000355
428.5938,0.000272
428.75,0.000495
428.9063,0.000509
429.0625,0.000411
429.2188,0.000321
429.375,0.000355
429.5313,0.000383
429.6875,0.000334
429.8438,0.000334
430,0.000503
430.1563,0.001049
430.3125,0.000801
430.4688,0.000343
430.625,0.00046
430.7813,0.000831
430.9375,0.000745
431.0938,0.000439
431.25,0.00021
431.4063,0.000216
431.5625,0.000181
431.7188,0.00021
431.875,0.0003
432.0313,0.00021
432.1875,0.000265
432.3438,0.00042
432.5,0.000621
432.6563,0.000775
432.8125,0.000741
432.9688,0.000411
433.125,0.000278
433.2813,0.000467
433.4375,0.000655
433.5938,0.000411
433.75,0.000509
433.9063,0.000612
434.0625,0.00037
434.2188,0.000398
434.375,0.000321
434.5313,0.000306
434.6875,0.000432
434.8438,0.000426
435,0.000355
435.1563,0.000355
435.3125,0.000321
435.4688,0.000293
435.625,0.000278
435.7813,0.000153
435.9375,0.000278
436.0938,0.000321
436.25,0.000306
436.4063,0.000664
436.5625,0.001032
436.7188,0.000732
436.875,0.000516
437.0313,0.000809
437.1875,0.000664
437.3438,0.000355
437.5,0.000244
437.6563,0.000216
437.8125,0.00039
437.9688,0.000676
438.125,0.000642
438.2813,0.000475
438.4375,0.000537
438.5938,0.000509
438.75,0.00037
438.9063,0.0003
439.0625,0.000349
439.2188,0.000405
439.375,0.000377
439.5313,0.000334
439.6875,0.00042
439.8438,0.000447
440,0.000503
440.1563,0.000405
440.3125,0.000524
440.4688,0.001747
440.625,0.003956
440.7813,0.004025
440.9375,0.001661
441.0938,0.000467
441.25,0.000238
441.4063,0.000265
441.5625,0.000285
441.7188,0.000349
441.875,0.000306
442.0313,0.000252
442.1875,0.000334
442.3438,0.000432
442.5,0.000377
442.6563,0.000447
442.8125,0.00037
442.9688,0.000439
443.125,0.000475
443.2813,0.00039
443.4375,0.00042
443.5938,0.00039
443.75,0.000447
443.9063,0.000398
444.0625,0.000293
444.2188,0.000475
444.375,0.001396
444.5313,0.003014
444.6875,0.002569
444.8438,0.000839
445,0.000467
445.1563,0.000334
445.3125,0.000343
445.4688,0.000306
445.625,0.000306
445.7813,0.000328
445.9375,0.000334
446.0938,0.00037
446.25,0.000315
446.4063,0.00046
446.5625,0.00042
446.7188,0.000398
446.875,0.000503
447.0313,0.000495
447.1875,0.000587
447.3438,0.000801
447.5,0.000537
447.6563,0.000328
447.8125,0.000552
447.9688,0.000976
448.125,0.00173
448.2813,0.001687
448.4375,0.000664
448.5938,0.000278
448.75,0.000244
448.9063,0.00021
449.0625,0.000139
449.2188,0.000153
449.375,0.000224
449.5313,0.000285
449.6875,0.000612
449.8438,0.000608
450,0.000258
450.1563,0.000174
450.3125,0.000216
450.4688,0.000188
450.625,0.000224
450.7813,0.000272
450.9375,0.000216
451.0938,0.00023
451.25,0.000188
451.4063,0.000216
451.5625,0.000405
451.7188,0.000432
451.875,0.00021
452.0313,0.00023
452.1875,0.000174
452.3438,0.00023
452.5,0.00021
452.6563,0.000195
452.8125,0.000238
452.9688,0.000405
453.125,0.000634
453.2813,0.000647
453.4375,0.000621
453.5938,0.000405
453.75,0.00021
453.9063,0.000355
454.0625,0.000454
454.2188,0.001019
454.375,0.002209
454.5313,0.002346
454.6875,0.000933
454.8438,0.000278
455,0.000224
455.1563,0.000139
455.3125,0.000315
455.4688,0.0003
455.625,0.00023
455.7813,0.000238
455.9375,0.000188
456.0938,0.00021
456.25,0.00023
456.4063,0.000181
456.5625,0.000161
456.7188,0.000334
456.875,0.00046
457.0313,0.000285
457.1875,0.000285
457.3438,0.000349
457.5,0.000334
457.6563,0.000377
457.8125,0.000328
457.9688,0.000278
458.125,0.000321
458.2813,0.000334
458.4375,0.000265
458.5938,0.000216
458.75,0.000181
458.9063,0.000238
459.0625,0.000216
459.2188,0.000188
459.375,0.000202
459.5313,0.000202
459.6875,0.000244
459.8438,0.000265
460,0.00023
460.1563,0.000321
460.3125,0.000252
460.4688,0.000265
460.625,0.000216
460.7813,0.000272
460.9375,0.000634
461.0938,0.001284
461.25,0.001396
461.4063,0.000754
461.5625,0.000328
461.7188,0.000238
461.875,0.000244
462.0313,0.000202
462.1875,0.000161
462.3438,0.000188
462.5,0.000216
462.6563,0.000265
462.8125,0.000315
462.9688,0.000355
463.125,0.000741
463.2813,0.000664
463.4375,0.000258
463.5938,0.000258
463.75,0.000202
463.9063,0.000153
464.0625,0.000685
464.2188,0.002175
464.375,0.002877
464.5313,0.001601
464.6875,0.000578
464.8438,0.000265
465,0.001293
465.1563,0.002483
465.3125,0.002038
465.4688,0.000732
465.625,0.000362
465.7813,0.000278
465.9375,0.000252
466.0938,0.000321
466.25,0.000405
466.4063,0.00037
466.5625,0.000454
466.7188,0.000405
466.875,0.000685
467.0313,0.000895
467.1875,0.000779
467.3438,0.000503
467.5,0.000482
467.6563,0.000599
467.8125,0.000488
467.9688,0.000349
468.125,0.000475
468.2813,0.000447
468.4375,0.000405
468.5938,0.000537
468.75,0.000495
468.9063,0.000411
469.0625,0.000398
469.2188,0.000258
469.375,0.000238
469.5313,0.000306
469.6875,0.000258
469.8438,0.000244
470,0.000265
470.1563,0.00037
470.3125,0.000664
470.4688,0.000706
470.625,0.000454
470.7813,0.000516
470.9375,0.00046
471.0938,0.000383
471.25,0.000321
471.4063,0.000467
471.5625,0.000685
471.7188,0.001182
471.875,0.001293
472.0313,0.000822
472.1875,0.001032
472.3438,0.001636
472.5,0.001139
472.6563,0.000642
472.8125,0.000454
472.9688,0.000398
473.125,0.000439
473.2813,0.000475
473.4375,0.000467
473.5938,0.000509
473.75,0.000745
473.9063,0.002963
474.0625,0.010481
474.2188,0.016304
474.375,0.011029
474.5313,0.003237
474.6875,0.001105
474.8438,0.000569
475,0.000355
475.1563,0.000488
475.3125,0.000578
475.4688,0.000328
475.625,0.000509
475.7813,0.000557
475.9375,0.00095
476.0938,0.001815
476.25,0.001601
476.4063,0.000843
476.5625,0.000578
476.7188,0.000467
476.875,0.00037
477.0313,0.00039
477.1875,0.000355
477.3438,0.000454
477.5,0.000495
477.6563,0.000608
477.8125,0.001049
477.9688,0.001216
478.125,0.000608
478.2813,0.00023
478.4375,0.000405
478.5938,0.000411
478.75,0.000447
478.9063,0.000411
479.0625,0.000516
479.2188,0.000544
479.375,0.000432
479.5313,0.000272
479.6875,0.000355
479.8438,0.000629
480,0.000689
480.1563,0.000432
480.3125,0.000439
480.4688,0.000439
480.625,0.000398
480.7813,0.000411
480.9375,0.00042
481.0938,0.000524
481.25,0.000503
481.4063,0.000343
481.5625,0.000377
481.7188,0.000599
481.875,0.000587
482.0313,0.0003
482.1875,0.000349
482.3438,0.000439
482.5,0.000328
482.6563,0.000238
482.8125,0.000224
482.9688,0.000349
483.125,0.00037
483.2813,0.000426
483.4375,0.000482
483.5938,0.00042
483.75,0.000439
483.9063,0.001182
484.0625,0.002124
484.2188,0.001755
484.375,0.000775
484.5313,0.000467
484.6875,0.000398
484.8438,0.000383
485,0.000265
485.1563,0.000349
485.3125,0.000537
485.4688,0.001113
485.625,0.001901
485.7813,0.001601
485.9375,0.000732
486.0938,0.000432
486.25,0.000315
486.4063,0.000362
486.5625,0.000383
486.7188,0.000252
486.875,0.000426
487.0313,0.000531
487.1875,0.00046
487.3438,0.000495
487.5,0.000608
487.6563,0.000495
487.8125,0.000252
487.9688,0.000167
488.125,0.000244
488.2813,0.000278
488.4375,0.000285
488.5938,0.000343
488.75,0.000265
488.9063,0.000315
489.0625,0.000655
489.2188,0.001113
489.375,0.000843
489.5313,0.001216
489.6875,0.001678
489.8438,0.001156
490,0.000411
490.1563,0.000224
490.3125,0.000224
490.4688,0.000377
490.625,0.000439
490.7813,0.000531
490.9375,0.000482
491.0938,0.000447
491.25,0.000439
491.4063,0.000398
491.5625,0.000349
491.7188,0.000328
491.875,0.000293
492.0313,0.000285
492.1875,0.000278
492.3438,0.000306
492.5,0.000321
492.6563,0.000188
492.8125,0.000447
492.9688,0.000516
493.125,0.000411
493.2813,0.000306
493.4375,0.000454
493.5938,0.000552
493.75,0.000655
493.9063,0.000796
494.0625,0.000762
494.2188,0.000432
494.375,0.000411
494.5313,0.0003
494.6875,0.0003
494.8438,0.00023
495,0.000265
495.1563,0.0003
495.3125,0.000355
495.4688,0.000306
495.625,0.00046
495.7813,0.000544
495.9375,0.000482
496.0938,0.00113
496.25,0.002175
496.4063,0.002064
496.5625,0.001113
496.7188,0.000852
496.875,0.000711
497.0313,0.000432
497.1875,0.000278
497.3438,0.000272
497.5,0.000426
497.6563,0.000447
497.8125,0.000454
497.9688,0.000377
498.125,0.000377
498.2813,0.000552
498.4375,0.000621
498.5938,0.000383
498.75,0.000258
498.9063,0.000328
499.0625,0.000377
499.2188,0.0003
499.375,0.000328
499.5313,0.000467
499.6875,0.000676
499.8438,0.000531