Frecuencia(Hz),"	mm/Seg(PC)"
1.541016,1.972903
2.311523,0.946993
3.082031,0.506378
3.852539,0.200578
4.623047,0.366083
5.393555,0.268534
6.164063,0.201675
6.93457,0.113442
7.705078,0.068778
8.475586,0.071792
9.246094,0.08056
10.0166,0.162216
10.78711,0.158928
11.55762,0.052063
12.32813,0.073436
13.09863,0.075628
13.86914,0.087685
14.63965,0.093165
15.41016,0.187426
16.18066,0.175369
16.95117,0.078916
17.72168,0.098645
18.49219,0.104125
19.2627,0.078916
20.0332,0.058365
20.80371,0.041924
21.57422,0.026031
22.34473,0.041102
23.11523,0.041376
23.88574,0.073984
24.65625,0.08056
25.42676,0.035896
26.19727,0.070696
26.96777,0.041102
27.73828,0.043842
28.50879,0.038362
29.2793,0.03754
30.0498,0.04302
30.82031,0.029594
31.59082,0.03754
32.36133,0.050419
33.13184,0.064667
33.90234,0.035896
34.67285,0.041924
35.44336,0.038362
36.21387,0.029183
36.98438,0.023017
37.75488,0.043842
38.52539,0.053707
39.2959,0.02562
40.06641,0.017948
40.83691,0.026442
41.60742,0.024524
42.37793,0.027675
43.14844,0.019318
43.91895,0.019455
44.68945,0.029183
45.45996,0.02836
46.23047,0.023017
47.00098,0.03754
47.77148,0.109058
48.54199,1.972903
49.3125,3.209255
50.08301,1.297732
50.85352,0.061653
51.62402,0.042472
52.39453,0.032334
53.16504,0.023702
53.93555,0.020551
54.70605,0.029183
55.47656,0.026853
56.24707,0.015208
57.01758,0.013632
57.78809,0.024661
58.55859,0.03754
59.3291,0.022058
60.09961,0.019318
60.87012,0.02014
61.64063,0.015619
62.41113,0.018085
63.18164,0.028771
63.95215,0.078916
64.72266,0.095357
65.49316,0.030005
66.26367,0.008837
67.03418,0.017194
67.80469,0.021236
68.5752,0.014043
69.3457,0.012605
70.11621,0.016783
70.88672,0.021099
71.65723,0.018496
72.42773,0.016989
73.19824,0.019866
73.96875,0.024798
74.73926,0.022469
75.50977,0.015002
76.28027,0.014386
77.05078,0.01418
77.82129,0.011851
78.5918,0.015824
79.3623,0.015619
80.13281,0.016783
80.90332,0.016989
81.67383,0.015824
82.44434,0.017948
83.21484,0.015619
83.98535,0.013632
84.75586,0.02014
85.52637,0.01418
86.29688,0.014591
87.06738,0.012399
87.83789,0.014797
88.6084,0.008837
89.37891,0.015961
90.14941,0.025209
90.91992,0.017674
91.69043,0.01007
92.46094,0.020277
93.23145,0.031923
94.00195,0.043842
94.77246,0.046582
95.54297,0.123306
96.31348,0.701477
97.08398,0.819851
97.85449,0.236748
98.625,0.079464
99.39551,0.121662
100.166,0.158928
100.9365,0.055351
101.707,0.026853
102.4775,0.031238
103.248,0.02425
104.0186,0.016167
104.7891,0.017674
105.5596,0.020551
106.3301,0.026853
107.1006,0.021921
107.8711,0.01144
108.6416,0.023017
109.4121,0.013221
110.1826,0.017674
110.9531,0.016167
111.7236,0.02836
112.4941,0.035896
113.2646,0.02562
114.0352,0.025209
114.8057,0.026031
115.5762,0.020551
116.3467,0.015824
117.1172,0.01877
117.8877,0.016578
118.6582,0.016167
119.4287,0.018359
120.1992,0.015961
120.9697,0.01281
121.7402,0.016989
122.5107,0.012399
123.2813,0.012057
124.0518,0.013427
124.8223,0.012399
125.5928,0.020277
126.3633,0.018085
127.1338,0.017537
127.9043,0.023017
128.6748,0.041376
129.4453,0.031649
130.2158,0.013427
130.9863,0.026442
131.7568,0.02836
132.5273,0.026031
133.2979,0.023428
134.0684,0.020688
134.8389,0.015208
135.6094,0.017537
136.3799,0.019318
137.1504,0.018085
137.9209,0.021647
138.6914,0.034389
139.4619,0.028771
140.2324,0.031923
141.0029,0.042472
141.7734,0.037814
142.5439,0.04576
143.3145,0.04576
144.085,0.084396
144.8555,0.08604
145.626,0.236748
146.3965,0.246613
147.167,0.11673
147.9375,0.115086
148.708,0.053707
149.4785,0.033567
150.249,0.049597
151.0195,0.102481
151.79,0.089877
152.5605,0.035074
153.3311,0.025072
154.1016,0.02836
154.8721,0.018907
155.6426,0.032334
156.4131,0.03617
157.1836,0.033567
157.9541,0.046856
158.7246,0.051241
159.4951,0.063297
160.2656,0.048227
161.0361,0.112346
161.8066,0.102481
162.5771,0.08604
163.3477,0.110702
164.1182,0.124951
164.8887,0.139199
165.6592,0.092069
166.4297,0.139199
167.2002,0.10577
167.9707,0.110702
168.7412,0.154544
169.5117,0.15016
170.2822,0.211539
171.0527,0.328817
171.8232,0.31128
172.5938,0.322241
173.3643,0.381428
174.1348,0.265246
174.9053,0.23346
175.6758,0.243325
176.4463,0.282783
177.2168,0.204963
177.9873,0.278399
178.7578,0.218115
179.5283,0.172081
180.2988,0.19729
181.0693,0.147968
181.8398,0.179753
182.6104,0.110702
183.3809,0.084396
184.1514,0.123306
184.9219,0.094809
185.6924,0.093165
186.4629,0.097001
187.2334,0.084396
188.0039,0.08056
188.7744,0.109058
189.5449,0.097001
190.3154,0.110702
191.0859,0.091521
191.8564,0.08604
192.627,0.15016
193.3975,0.473497
194.168,0.449383
194.9385,0.16112
195.709,0.107414
196.4795,0.189618
197.25,0.162216
198.0205,0.058365
198.791,0.059187
199.5615,0.23346
200.332,0.271822
201.1025,0.082204
201.873,0.048501
202.6436,0.054529
203.4141,0.050145
204.1846,0.036992
204.9551,0.03617
205.7256,0.03754
206.4961,0.056721
207.2666,0.070148
208.0371,0.070148
208.8076,0.073436
209.5781,0.056721
210.3486,0.100837
211.1191,0.093165
211.8896,0.098097
212.6602,0.089877
213.4307,0.077272
214.2012,0.094809
214.9717,0.070148
215.7422,0.084396
216.5127,0.082204
217.2832,0.062475
218.0537,0.045486
218.8242,0.033156
219.5947,0.04028
220.3652,0.057543
221.1357,0.032334
221.9063,0.044116
222.6768,0.049597
223.4473,0.03754
224.2178,0.058365
224.9883,0.10577
225.7588,0.214827
226.5293,0.140295
227.2998,0.083848
228.0703,0.067134
228.8408,0.047404
229.6113,0.055351
230.3818,0.056173
231.1523,0.071792
231.9229,0.070148
232.6934,0.0696
233.4639,0.083848
234.2344,0.071792
235.0049,0.059187
235.7754,0.070696
236.5459,0.051241
237.3164,0.067956
238.0869,0.098097
238.8574,0.130979
239.6279,0.083848
240.3984,0.067956
241.1689,0.129335
241.9395,0.10577
242.71,0.151256
243.4805,0.112346
244.251,0.115086
245.0215,0.140295
245.792,0.154544
246.5625,0.143583
247.333,0.107414
248.1035,0.073436
248.874,0.082204
249.6445,0.110702
250.415,0.121662
251.1855,0.115086
251.9561,0.094809
252.7266,0.092069
253.4971,0.093713
254.2676,0.126595
255.0381,0.127691
255.8086,0.120018
256.5791,0.091521
257.3496,0.098097
258.1201,0.16112
258.8906,0.139199
259.6611,0.123306
260.4316,0.102481
261.2021,0.123306
261.9727,0.109058
262.7432,0.089877
263.5137,0.082204
264.2842,0.070696
265.0547,0.060831
265.8252,0.062475
266.5957,0.051241
267.3662,0.063845
268.1367,0.075628
268.9072,0.055351
269.6777,0.042198
270.4482,0.037814
271.2188,0.040554
271.9893,0.03891
272.7598,0.060831
273.5303,0.07234
274.3008,0.043294
275.0713,0.054529
275.8418,0.042198
276.6123,0.053707
277.3828,0.027675
278.1533,0.033978
278.9238,0.039732
279.6943,0.029183
280.4648,0.030416
281.2354,0.03617
282.0059,0.033978
282.7764,0.042198
283.5469,0.03754
284.3174,0.027264
285.0879,0.039732
285.8584,0.044116
286.6289,0.035896
287.3994,0.039732
288.1699,0.043294
288.9404,0.035896
289.7109,0.204963
290.4814,0.324433
291.252,0.141391
292.0225,0.049597
292.793,0.054529
293.5635,0.046856
294.334,0.033978
295.1045,0.0348
295.875,0.039458
296.6455,0.052885
297.416,0.054529
298.1865,0.03891
298.957,0.03754
299.7275,0.038362
300.498,0.029183
301.2686,0.031923
302.0391,0.038636
302.8096,0.052063
303.5801,0.03754
304.3506,0.03754
305.1211,0.050419
305.8916,0.038636
306.6621,0.028086
307.4326,0.035074
308.2031,0.041102
308.9736,0.051241
309.7441,0.031923
310.5146,0.053707
311.2852,0.070148
312.0557,0.493226
312.8262,1.034678
313.5967,0.565565
314.3672,0.071792
315.1377,0.050419
315.9082,0.031923
316.6787,0.033567
317.4492,0.033567
318.2197,0.031238
318.9902,0.029183
319.7607,0.028771
320.5313,0.035896
321.3018,0.038362
322.0723,0.063845
322.8428,0.079464
323.6133,0.028771
324.3838,0.018496
325.1543,0.024798
325.9248,0.027264
326.6953,0.014043
327.4658,0.02014
328.2363,0.021647
329.0068,0.022469
329.7773,0.020551
330.5479,0.018359
331.3184,0.018496
332.0889,0.02562
332.8594,0.020962
333.6299,0.019318
334.4004,0.026031
335.1709,0.033567
335.9414,0.03617
336.7119,0.032745
337.4824,0.044938
338.2529,0.040554
339.0234,0.02014
339.7939,0.028771
340.5645,0.020962
341.335,0.02562
342.1055,0.023017
342.876,0.035896
343.6465,0.035074
344.417,0.067956
345.1875,0.060009
345.958,0.065489
346.7285,0.032334
347.499,0.019729
348.2695,0.023428
349.04,0.027675
349.8105,0.021647
350.5811,0.023291
351.3516,0.019455
352.1221,0.02151
352.8926,0.015208
353.6631,0.021647
354.4336,0.027264
355.2041,0.023702
355.9746,0.015208
356.7451,0.015002
357.5156,0.019455
358.2861,0.02151
359.0566,0.021099
359.8271,0.017537
360.5977,0.020277
361.3682,0.016167
362.1387,0.019729
362.9092,0.016167
363.6797,0.01418
364.4502,0.024524
365.2207,0.026442
365.9912,0.011235
366.7617,0.017537
367.5322,0.027675
368.3027,0.032334
369.0732,0.028086
369.8438,0.03754
370.6143,0.03754
371.3848,0.02836
372.1553,0.029594
372.9258,0.017948
373.6963,0.02836
374.4668,0.029183
375.2373,0.029594
376.0078,0.021236
376.7783,0.019318
377.5488,0.033567
378.3193,0.02836
379.0898,0.030005
379.8604,0.035074
380.6309,0.041924
381.4014,0.035348
382.1719,0.036992
382.9424,0.035896
383.7129,0.04302
384.4834,0.067134
385.2539,0.16112
386.0244,0.776008
386.7949,2.946202
387.5654,2.525316
388.3359,0.409925
389.1064,0.140295
389.877,0.048501
390.6475,0.023428
391.418,0.011646
392.1885,0.014797
392.959,0.024661
393.7295,0.030005
394.5,0.014386
395.2705,0.01281
396.041,0.014797
396.8115,0.017674
397.582,0.015961
398.3525,0.016783
399.123,0.019455
399.8936,0.03891
400.6641,0.029183
401.4346,0.009865
402.2051,0.014797
402.9756,0.022058
403.7461,0.02151
404.5166,0.022469
405.2871,0.01877
406.0576,0.011646
406.8281,0.016578
407.5986,0.017674
408.3691,0.016372
409.1396,0.030416
409.9102,0.040554
410.6807,0.030416
411.4512,0.020551
412.2217,0.015208
412.9922,0.019455
413.7627,0.02288
414.5332,0.026031
415.3037,0.022743
416.0742,0.024798
416.8447,0.029594
417.6152,0.031923
418.3857,0.033156
419.1563,0.112346
419.9268,0.089877
420.6973,0.036718
421.4678,0.035896
422.2383,0.04576
423.0088,0.042472
423.7793,0.034389
424.5498,0.029594
425.3203,0.03754
426.0908,0.030005
426.8613,0.045486
427.6318,0.049049
428.4023,0.071792
429.1729,0.070148
429.9434,0.040554
430.7139,0.049323
431.4844,0.061653
432.2549,0.089877
433.0254,0.07782
433.7959,0.065489
434.5664,0.175369
435.3369,0.115086
436.1074,0.165505
436.8779,0.134267
437.6484,0.090973
438.4189,0.079464
439.1895,0.065489
439.96,0.067134
440.7305,0.049049
441.501,0.073436
442.2715,0.088233
443.042,0.086589
443.8125,0.077272
444.583,0.083848
445.3535,0.079464
446.124,0.081108
446.8945,0.059187
447.665,0.052063
448.4355,0.073984
449.2061,0.07508
449.9766,0.060009
450.7471,0.067956
451.5176,0.129335
452.2881,0.088233
453.0586,0.052885
453.8291,0.071792
454.5996,0.087685
455.3701,0.055351
456.1406,0.044116
456.9111,0.052063
457.6816,0.073984
458.4521,0.078916
459.2227,0.053707
459.9932,0.061653
460.7637,0.086589
461.5342,0.082204
462.3047,0.047404
463.0752,0.046034
463.8457,0.0696
464.6162,0.059187
465.3867,0.04302
466.1572,0.081108
466.9277,0.100837
467.6982,0.086589
468.4688,0.089877
469.2393,0.068778
470.0098,0.049049
470.7803,0.086589
471.5508,0.067956
472.3213,0.049049
473.0918,0.053707
473.8623,0.052885
474.6328,0.050419
475.4033,0.038636
476.1738,0.042472
476.9443,0.044664
477.7148,0.041376
478.4854,0.065489
479.2559,0.058365
480.0264,0.035348
480.7969,0.029594
481.5674,0.060009
482.3379,0.118374
483.1084,0.306896
483.8789,0.530492
484.6494,0.23346
485.4199,0.066311
486.1904,0.055351
486.9609,0.102481
487.7314,0.076724
488.502,0.041102
489.2725,0.032745
490.043,0.041924
490.8135,0.046582
491.584,0.0348
492.3545,0.030416
493.125,0.028086
493.8955,0.036992
494.666,0.03754
495.4365,0.031238
496.207,0.044116
496.9775,0.048227
497.748,0.033978
498.5186,0.047404
499.2891,0.047678
500.0596,0.100837
500.8301,0.100837
501.6006,0.035896
502.3711,0.058365
503.1416,0.039732
503.9121,0.026853
504.6826,0.038362
505.4531,0.031649
506.2236,0.030005
506.9941,0.031649
507.7646,0.031238
508.5352,0.03617
509.3057,0.024661
510.0762,0.030005
510.8467,0.031238
511.6172,0.026031
512.3877,0.039458
513.1582,0.034389
513.9287,0.036718
514.6992,0.032745
515.4697,0.11673
516.2402,0.179753
517.0107,0.089329
517.7813,0.033978
518.5518,0.042198
519.3223,0.051241
520.0928,0.035348
520.8633,0.03754
521.6338,0.02836
522.4043,0.054529
523.1748,0.049049
523.9453,0.03891
524.7158,0.039458
525.4863,0.051241
526.2568,0.051241
527.0273,0.040554
527.7979,0.039732
528.5684,0.084944
529.3389,0.102481
530.1094,0.050419
530.8799,0.07234
531.6504,0.084944
532.4209,0.071792
533.1914,0.107414
533.9619,0.066311
534.7324,0.065489
535.5029,0.062475
536.2734,0.03754
537.0439,0.02836
537.8145,0.046034
538.585,0.056173
539.3555,0.03891
540.126,0.065489
540.8965,0.162216
541.667,0.151256
542.4375,0.047404
543.208,0.050145
543.9785,0.041376
544.749,0.059187
545.5195,0.056173
546.29,0.0696
547.0605,0.055351
547.8311,0.043294
548.6016,0.03617
549.3721,0.039732
550.1426,0.035896
550.9131,0.052063
551.6836,0.070696
552.4541,0.035074
553.2246,0.023291
553.9951,0.033567
554.7656,0.041376
555.5361,0.035896
556.3066,0.033978
557.0771,0.032745
557.8477,0.052063
558.6182,0.07508
559.3887,0.07782
560.1592,0.087685
560.9297,0.070696
561.7002,0.070148
562.4707,0.070696
563.2412,0.07782
564.0117,0.070696
564.7822,0.068778
565.5527,0.078916
566.3232,0.039458
567.0938,0.052063
567.8643,0.047678
568.6348,0.053707
569.4053,0.044664
570.1758,0.033567
570.9463,0.039732
571.7168,0.039458
572.4873,0.031649
573.2578,0.035896
574.0283,0.044664
574.7988,0.045486
575.5693,0.063297
576.3398,0.048501
577.1104,0.058365
577.8809,0.073436
578.6514,0.071792
579.4219,0.059187
580.1924,0.120018
580.9629,0.135911
581.7334,0.03891
582.5039,0.026853
583.2744,0.034389
584.0449,0.035896
584.8154,0.027675
585.5859,0.032745
586.3564,0.032745
587.127,0.039458
587.8975,0.032745
588.668,0.026031
589.4385,0.023702
590.209,0.031238
590.9795,0.033567
591.75,0.038636
592.5205,0.035896
593.291,0.030827
594.0615,0.028086
594.832,0.036718
595.6025,0.046582
596.373,0.075628
597.1436,0.123306
597.9141,0.067134
598.6846,0.041924
599.4551,0.062475
600.2256,0.061653
600.9961,0.049049
601.7666,0.04302
602.5371,0.056721
603.3076,0.056173
604.0781,0.03754
604.8486,0.026031
605.6191,0.017674
606.3896,0.031649
607.1602,0.032745
607.9307,0.031923
608.7012,0.027675
609.4717,0.039732
610.2422,0.051241
611.0127,0.046582
611.7832,0.033156
612.5537,0.089877
613.3242,0.095357
614.0947,0.055351
614.8652,0.038362
615.6357,0.067134
616.4063,0.052885
617.1768,0.030416
617.9473,0.051241
618.7178,0.037814
619.4883,0.020551
620.2588,0.019318
621.0293,0.017948
621.7998,0.015208
622.5703,0.023428
623.3408,0.044664
624.1113,0.055351
624.8818,0.201675
625.6523,0.423078
626.4229,0.246613
627.1934,0.055351
627.9639,0.031923
628.7344,0.01418
629.5049,0.015961
630.2754,0.013632
631.0459,0.015002
631.8164,0.017194
632.5869,0.040554
633.3574,0.043294
634.1279,0.018085
634.8984,0.019181
635.6689,0.01281
636.4395,0.010824
637.21,0.009865
637.9805,0.016783
638.751,0.017948
639.5215,0.044664
640.292,0.031238
641.0625,0.019318
641.833,0.01877
642.6035,0.010481
643.374,0.01144
644.1445,0.0174
644.915,0.047678
645.6855,0.032745
646.4561,0.00709
647.2266,0.008083
647.9971,0.009865
648.7676,0.009042
649.5381,0.012399
650.3086,0.013632
651.0791,0.01877
651.8496,0.026853
652.6201,0.0174
653.3906,0.01007
654.1611,0.012262
654.9316,0.008837
655.7021,0.016372
656.4727,0.02151
657.2432,0.013632
658.0137,0.018085
658.7842,0.020962
659.5547,0.019318
660.3252,0.023839
661.0957,0.030005
661.8662,0.014591
662.6367,0.017948
663.4072,0.016372
664.1777,0.016372
664.9482,0.017537
665.7188,0.0174
666.4893,0.010618
667.2598,0.011851
668.0303,0.009865
668.8008,0.008083
669.5713,0.010481
670.3418,0.011235
671.1123,0.012605
671.8828,0.020551
672.6533,0.022332
673.4238,0.016372
674.1943,0.023291
674.9648,0.0174
675.7354,0.024798
676.5059,0.033156
677.2764,0.076724
678.0469,0.056721
678.8174,0.02288
679.5879,0.018359
680.3584,0.014797
681.1289,0.011646
681.8994,0.013838
682.6699,0.015961
683.4404,0.015413
684.2109,0.014386
684.9814,0.012399
685.752,0.01007
686.5225,0.015619
687.293,0.018085
688.0635,0.014386
688.834,0.018496
689.6045,0.015961
690.375,0.015208
691.1455,0.008837
691.916,0.013016
692.6865,0.026853
693.457,0.034389
694.2275,0.033978
694.998,0.031238
695.7686,0.026442
696.5391,0.020551
697.3096,0.016578
698.0801,0.016167
698.8506,0.031923
699.6211,0.110702
700.3916,0.095357
701.1621,0.022743
701.9326,0.013016
702.7031,0.019455
703.4736,0.033978
704.2441,0.023428
705.0146,0.012262
705.7852,0.015208
706.5557,0.016167
707.3262,0.020551
708.0967,0.022469
708.8672,0.02014
709.6377,0.042472
710.4082,0.0348
711.1787,0.019318
711.9492,0.024113
712.7197,0.035348
713.4902,0.020551
714.2607,0.019866
715.0313,0.030005
715.8018,0.026853
716.5723,0.016783
717.3428,0.013221
718.1133,0.017537
718.8838,0.017674
719.6543,0.015413
720.4248,0.013838
721.1953,0.022469
721.9658,0.03617
722.7363,0.04028
723.5068,0.02562
724.2773,0.027264
725.0479,0.043294
725.8184,0.029594
726.5889,0.024524
727.3594,0.024798
728.1299,0.018359
728.9004,0.032334
729.6709,0.030005
730.4414,0.028771
731.2119,0.026031
731.9824,0.028086
732.7529,0.022058
733.5234,0.023428
734.2939,0.029183
735.0645,0.036718
735.835,0.031649
736.6055,0.02562
737.376,0.026853
738.1465,0.02562
738.917,0.040554
739.6875,0.033978
740.458,0.043842
741.2285,0.051241
741.999,0.056721
742.7695,0.026031
743.54,0.020551
744.3105,0.023291
745.0811,0.026442
745.8516,0.02151
746.6221,0.020277
747.3926,0.020277
748.1631,0.026853
748.9336,0.026031
749.7041,0.011029
750.4746,0.016989
751.2451,0.022469
752.0156,0.030005
752.7861,0.029183
753.5566,0.026442
754.3271,0.030005
755.0977,0.026853
755.8682,0.023839
756.6387,0.043842
757.4092,0.067956
758.1797,0.050419
758.9502,0.031238
759.7207,0.030827
760.4912,0.024524
761.2617,0.020277
762.0322,0.023017
762.8027,0.02014
763.5732,0.026853
764.3438,0.02562
765.1143,0.019181
765.8848,0.017674
766.6553,0.019455
767.4258,0.01877
768.1963,0.021236
768.9668,0.019318
769.7373,0.031238
770.5078,0.024524
771.2783,0.023839
772.0488,0.064667
772.8193,0.0696
773.5898,0.449383
774.3604,0.618176
775.1309,0.208251
775.9014,0.060009
776.6719,0.032745
777.4424,0.023702
778.2129,0.018907
778.9834,0.016372
779.7539,0.019181
780.5244,0.015413
781.2949,0.013016
782.0654,0.01281
782.8359,0.012262
783.6064,0.010824
784.377,0.012399
785.1475,0.015824
785.918,0.015002
786.6885,0.014591
787.459,0.018359
788.2295,0.013838
789,0.016372
789.7705,0.029594
790.541,0.027675
791.3115,0.02425
792.082,0.018907
792.8525,0.016372
793.623,0.011851
794.3936,0.012605
795.1641,0.008083
795.9346,0.015208
796.7051,0.019866
797.4756,0.023291
798.2461,0.027264
799.0166,0.018496
799.7871,0.022058
800.5576,0.02562
801.3281,0.023702
802.0986,0.022058
802.8691,0.023839
803.6396,0.028771
804.4102,0.029183
805.1807,0.019866
805.9512,0.044938
806.7217,0.067134
807.4922,0.033978
808.2627,0.019866
809.0332,0.027675
809.8037,0.029594
810.5742,0.016372
811.3447,0.02014
812.1152,0.02151
812.8857,0.023839
813.6563,0.023839
814.4268,0.023839
815.1973,0.026442
815.9678,0.030827
816.7383,0.020962
817.5088,0.024113
818.2793,0.027675
819.0498,0.035896
819.8203,0.033978
820.5908,0.016167
821.3613,0.028086
822.1318,0.035348
822.9023,0.045486
823.6729,0.046856
824.4434,0.026442
825.2139,0.025209
825.9844,0.02014
826.7549,0.014591
827.5254,0.011235
828.2959,0.012262
829.0664,0.011646
829.8369,0.018907
830.6074,0.01877
831.3779,0.022332
832.1484,0.018359
832.9189,0.016783
833.6895,0.019866
834.46,0.015961
835.2305,0.014797
836.001,0.021236
836.7715,0.026853
837.542,0.022469
838.3125,0.060831
839.083,0.055351
839.8535,0.019318
840.624,0.021921
841.3945,0.027264
842.165,0.027264
842.9355,0.017674
843.7061,0.013221
844.4766,0.019181
845.2471,0.028086
846.0176,0.026031
846.7881,0.017674
847.5586,0.016783
848.3291,0.026442
849.0996,0.020551
849.8701,0.015208
850.6406,0.0348
851.4111,0.0348
852.1816,0.023702
852.9521,0.029183
853.7227,0.032745
854.4932,0.029594
855.2637,0.033978
856.0342,0.03754
856.8047,0.016783
857.5752,0.026031
858.3457,0.026853
859.1162,0.01877
859.8867,0.015002
860.6572,0.013016
861.4277,0.014386
862.1982,0.02288
862.9688,0.021236
863.7393,0.036992
864.5098,0.04576
865.2803,0.03617
866.0508,0.039732
866.8213,0.026442
867.5918,0.021647
868.3623,0.018085
869.1328,0.036992
869.9033,0.055351
870.6738,0.092069
871.4443,0.070696
872.2148,0.021921
872.9854,0.017537
873.7559,0.024798
874.5264,0.020277
875.2969,0.010618
876.0674,0.013221
876.8379,0.015413
877.6084,0.018496
878.3789,0.017674
879.1494,0.018359
879.9199,0.01877
880.6904,0.018496
881.4609,0.014043
882.2314,0.01418
883.002,0.013838
883.7725,0.0174
884.543,0.019318
885.3135,0.023428
886.084,0.028771
886.8545,0.10577
887.625,0.162216
888.3955,0.064667
889.166,0.032745
889.9365,0.041102
890.707,0.0174
891.4775,0.017194
892.248,0.012605
893.0186,0.012605
893.7891,0.013221
894.5596,0.01281
895.3301,0.009865
896.1006,0.006131
896.8711,0.009042
897.6416,0.012399
898.4121,0.013221
899.1826,0.012262
899.9531,0.010481
900.7236,0.00572
901.4941,0.006919
902.2646,0.011646
903.0352,0.020551
903.8057,0.017537
904.5762,0.012057
905.3467,0.010481
906.1172,0.012057
906.8877,0.01144
907.6582,0.00709
908.4287,0.008289
909.1992,0.010276
909.9697,0.01007
910.7402,0.010618
911.5107,0.009248
912.2813,0.01144
913.0518,0.012399
913.8223,0.010276
914.5928,0.010276
915.3633,0.010481
916.1338,0.009865
916.9043,0.011029
917.6748,0.011235
918.4453,0.015413
919.2158,0.010481
919.9863,0.013221
920.7568,0.013632
921.5273,0.015824
922.2979,0.015961
923.0684,0.017948
923.8389,0.013427
924.6094,0.010618
925.3799,0.014797
926.1504,0.010481
926.9209,0.008837
927.6914,0.015413
928.4619,0.017948
929.2324,0.01281
930.0029,0.012057
930.7734,0.010276
931.5439,0.012057
932.3145,0.012057
933.085,0.014797
933.8555,0.017194
934.626,0.014043
935.3965,0.016989
936.167,0.017194
936.9375,0.023291
937.708,0.059187
938.4785,0.118374
939.249,0.086589
940.0195,0.028771
940.79,0.022332
941.5605,0.016372
942.3311,0.014386
943.1016,0.011646
943.8721,0.011646
944.6426,0.011851
945.4131,0.009865
946.1836,0.012605
946.9541,0.013838
947.7246,0.012399
948.4951,0.012399
949.2656,0.014386
950.0361,0.018085
950.8066,0.021921
951.5771,0.017537
952.3477,0.01418
953.1182,0.015413
953.8887,0.01418
954.6592,0.016783
955.4297,0.015961
956.2002,0.017537
956.9707,0.016783
957.7412,0.016989
958.5117,0.014797
959.2822,0.012605
960.0527,0.02014
960.8232,0.02151
961.5938,0.022469
962.3643,0.019866
963.1348,0.023428
963.9053,0.035896
964.6758,0.0696
965.4463,0.093713
966.2168,0.075628
966.9873,0.08056
967.7578,0.129335
968.5283,0.070696
969.2988,0.030827
970.0693,0.029594
970.8398,0.031238
971.6104,0.023702
972.3809,0.021236
973.1514,0.020277
973.9219,0.026031
974.6924,0.02836
975.4629,0.021921
976.2334,0.020277
977.0039,0.025072
977.7744,0.023017
978.5449,0.014591
979.3154,0.010824
980.0859,0.016989
980.8564,0.025072
981.627,0.02836
982.3975,0.020688
983.168,0.024798
983.9385,0.043294
984.709,0.045486
985.4795,0.021099
986.25,0.020688
987.0205,0.02562
987.791,0.026853
988.5615,0.02151
989.332,0.020688
990.1025,0.023291
990.873,0.02836
991.6436,0.019455
992.4141,0.012057
993.1846,0.0087
993.9551,0.013632
994.7256,0.02014
995.4961,0.018085
996.2666,0.013221
997.0371,0.01281
997.8076,0.015824
998.5781,0.014043
999.3486,0.019455
1000.119,0.041924
1000.89,0.049323
1001.66,0.024524
1002.431,0.030005
1003.201,0.035348
1003.972,0.016167
1004.742,0.019318
1005.513,0.022469
1006.283,0.020551
1007.054,0.019318
1007.824,0.014386
1008.595,0.020277
1009.365,0.021236
1010.136,0.021099
1010.906,0.030827
1011.677,0.0696
1012.447,0.208251
1013.218,0.214827
1013.988,0.055351
1014.759,0.039732
1015.529,0.033567
1016.3,0.028771
1017.07,0.023428
1017.841,0.013016
1018.611,0.017948
1019.382,0.020551
1020.152,0.016167
1020.923,0.012262
1021.693,0.008837
1022.464,0.015002
1023.234,0.02562
1024.005,0.018359
1024.775,0.017948
1025.546,0.016372
1026.316,0.025072
1027.087,0.017948
1027.857,0.009453
1028.628,0.015002
1029.398,0.018085
1030.169,0.011851
1030.939,0.011235
1031.71,0.023017
1032.48,0.019729
1033.251,0.015961
1034.021,0.017194
1034.792,0.016783
1035.563,0.016578
1036.333,0.009248
1037.104,0.013221
1037.874,0.015413
1038.645,0.019318
1039.415,0.018085
1040.186,0.012399
1040.956,0.011646
1041.727,0.013632
1042.497,0.013427
1043.268,0.012057
1044.038,0.013427
1044.809,0.019455
1045.579,0.017674
1046.35,0.018907
1047.12,0.023291
1047.891,0.019181
1048.661,0.016989
1049.432,0.0174
1050.202,0.016372
1050.973,0.014386
1051.743,0.010824
1052.514,0.011851
1053.284,0.011235
1054.055,0.012262
1054.825,0.013016
1055.596,0.015824
1056.366,0.014591
1057.137,0.013632
1057.907,0.015619
1058.678,0.015002
1059.448,0.020551
1060.219,0.027264
1060.989,0.045486
1061.76,0.039732
1062.53,0.032334
1063.301,0.032745
1064.071,0.120018
1064.842,0.130979
1065.612,0.033156
1066.383,0.019455
1067.153,0.012262
1067.924,0.016372
1068.694,0.01007
1069.465,0.015208
1070.235,0.012057
1071.006,0.009865
1071.776,0.007296
1072.547,0.012057
1073.317,0.012057
1074.088,0.012057
1074.858,0.014043
1075.629,0.011235
1076.399,0.01281
1077.17,0.030005
1077.94,0.031923
1078.711,0.017674
1079.481,0.016578
1080.252,0.025209
1081.022,0.033156
1081.793,0.026853
1082.563,0.035348
1083.334,0.02288
1084.104,0.016372
1084.875,0.011029
1085.646,0.012057
1086.416,0.020277
1087.187,0.024524
1087.957,0.013221
1088.728,0.007707
1089.498,0.011646
1090.269,0.053707
1091.039,0.0696
1091.81,0.030827
1092.58,0.013838
1093.351,0.016989
1094.121,0.015619
1094.892,0.016167
1095.662,0.015961
1096.433,0.039732
1097.203,0.032745
1097.974,0.014043
1098.744,0.0174
1099.515,0.0348
1100.285,0.034389
1101.056,0.01877
1101.826,0.036718
1102.597,0.070148
1103.367,0.073436
1104.138,0.037814
1104.908,0.024113
1105.679,0.0174
1106.449,0.01144
1107.22,0.01418
1107.99,0.019729
1108.761,0.014591
1109.531,0.026853
1110.302,0.053707
1111.072,0.126595
1111.843,0.394581
1112.613,0.315664
1113.384,0.100289
1114.154,0.091521
1114.925,0.035896
1115.695,0.021099
1116.466,0.011646
1117.236,0.015824
1118.007,0.01281
1118.777,0.017537
1119.548,0.016372
1120.318,0.018907
1121.089,0.017674
1121.859,0.011851
1122.63,0.011646
1123.4,0.012262
1124.171,0.011851
1124.941,0.01877
1125.712,0.018359
1126.482,0.019318
1127.253,0.022332
1128.023,0.033567
1128.794,0.037814
1129.564,0.01877
1130.335,0.012057
1131.105,0.029183
1131.876,0.040554
1132.646,0.018496
1133.417,0.020551
1134.188,0.015002
1134.958,0.01007
1135.729,0.018907
1136.499,0.019181
1137.27,0.018496
1138.04,0.016578
1138.811,0.020688
1139.581,0.018907
1140.352,0.02014
1141.122,0.020688
1141.893,0.033156
1142.663,0.033156
1143.434,0.023428
1144.204,0.031649
1144.975,0.033156
1145.745,0.024798
1146.516,0.02288
1147.286,0.022058
1148.057,0.022743
1148.827,0.019181
1149.598,0.020277
1150.368,0.029183
1151.139,0.039458
1151.909,0.032334
1152.68,0.026031
1153.45,0.017537
1154.221,0.028771
1154.991,0.027264
1155.762,0.024798
1156.532,0.028086
1157.303,0.031238
1158.073,0.034389
1158.844,0.093165
1159.614,0.169889
1160.385,0.486649
1161.155,1.131131
1161.926,0.73655
1162.696,0.165505
1163.467,0.107414
1164.237,0.04028
1165.008,0.028771
1165.778,0.026853
1166.549,0.021647
1167.319,0.019729
1168.09,0.026853
1168.86,0.022058
1169.631,0.017194
1170.401,0.019318
1171.172,0.025072
1171.942,0.023839
1172.713,0.032334
1173.483,0.036718
1174.254,0.030416
1175.024,0.04028
1175.795,0.081108
1176.565,0.204963
1177.336,0.265246
1178.106,0.16112
1178.877,0.063845
1179.647,0.041102
1180.418,0.020277
1181.188,0.023839
1181.959,0.02562
1182.729,0.027675
1183.5,0.030416
1184.271,0.025072
1185.041,0.02151
1185.812,0.019455
1186.582,0.020551
1187.353,0.032745
1188.123,0.028771
1188.894,0.020551
1189.664,0.021099
1190.435,0.016372
1191.205,0.016989
1191.976,0.013221
1192.746,0.026853
1193.517,0.050145
1194.287,0.033978
1195.058,0.019181
1195.828,0.020551
1196.599,0.019455
1197.369,0.016989
1198.14,0.018085
1198.91,0.018907
1199.681,0.026031
1200.451,0.026853
1201.222,0.020962
1201.992,0.019318
1202.763,0.034389
1203.533,0.038636
1204.304,0.023428
1205.074,0.021921
1205.845,0.02425
1206.615,0.029183
1207.386,0.02562
1208.156,0.049049
1208.927,0.07782
1209.697,0.141391
1210.468,0.265246
1211.238,0.134267
1212.009,0.039732
1212.779,0.024113
1213.55,0.025072
1214.32,0.013221
1215.091,0.011029
1215.861,0.015413
1216.632,0.013427
1217.402,0.013016
1218.173,0.015208
1218.943,0.013838
1219.714,0.016989
1220.484,0.014591
1221.255,0.015824
1222.025,0.013221
1222.796,0.012262
1223.566,0.019181
1224.337,0.031649
1225.107,0.050419
1225.878,0.057543
1226.648,0.026853
1227.419,0.023291
1228.189,0.017537
1228.96,0.016372
1229.73,0.028086
1230.501,0.030827
1231.271,0.016167
1232.042,0.015961
1232.813,0.01281
1233.583,0.011646
1234.354,0.012057
1235.124,0.016372
1235.895,0.017948
1236.665,0.009865
1237.436,0.018085
1238.206,0.015619
1238.977,0.016989
1239.747,0.021921
1240.518,0.015961
1241.288,0.015619
1242.059,0.017674
1242.829,0.02014
1243.6,0.015002
1244.37,0.013016
1245.141,0.014043
1245.911,0.013632
1246.682,0.017194
1247.452,0.018496
1248.223,0.026031
1248.993,0.051241
1249.764,0.083848
1250.534,0.196194
1251.305,0.350738
1252.075,0.246613
1252.846,0.096453
1253.616,0.061653
1254.387,0.030005
1255.157,0.026442
1255.928,0.046856
1256.698,0.048501
1257.469,0.143583
1258.239,0.168793
1259.01,0.057543
1259.78,0.057543
1260.551,0.029594
1261.321,0.033567
1262.092,0.02288
1262.862,0.023428
1263.633,0.029594
1264.403,0.025072
1265.174,0.019181
1265.944,0.014797
1266.715,0.017194
1267.485,0.021236
1268.256,0.018907
1269.026,0.023702
1269.797,0.031649
1270.567,0.02562
1271.338,0.014591
1272.108,0.023428
1272.879,0.027264
1273.649,0.024524
1274.42,0.023428
1275.19,0.015208
1275.961,0.020688
1276.731,0.02288
1277.502,0.040554
1278.272,0.024661
1279.043,0.019181
1279.813,0.019455
1280.584,0.017948
1281.354,0.016989
1282.125,0.016783
1282.896,0.013016
1283.666,0.019181
1284.437,0.020277
1285.207,0.017194
1285.978,0.018907
1286.748,0.015208
1287.519,0.015413
1288.289,0.016372
1289.06,0.026442
1289.83,0.046582
1290.601,0.044938
1291.371,0.021921
1292.142,0.024661
1292.912,0.022058
1293.683,0.017948
1294.453,0.011646
1295.224,0.017674
1295.994,0.022058
1296.765,0.020962
1297.535,0.022332
1298.306,0.01418
1299.076,0.019318
1299.847,0.025209
1300.617,0.020551
1301.388,0.0174
1302.158,0.02562
1302.929,0.047678
1303.699,0.038362
1304.47,0.019729
1305.24,0.036718
1306.011,0.036718
1306.781,0.051241
1307.552,0.060831
1308.322,0.024524
1309.093,0.037814
1309.863,0.03754
1310.634,0.020551
1311.404,0.021099
1312.175,0.021236
1312.945,0.015208
1313.716,0.022743
1314.486,0.023702
1315.257,0.011235
1316.027,0.022469
1316.798,0.028086
1317.568,0.020277
1318.339,0.02562
1319.109,0.02562
1319.88,0.024524
1320.65,0.024113
1321.421,0.024798
1322.191,0.031923
1322.962,0.024661
1323.732,0.024798
1324.503,0.03617
1325.273,0.08056
1326.044,0.073436
1326.814,0.046034
1327.585,0.082204
1328.355,0.204963
1329.126,0.143583
1329.896,0.042472
1330.667,0.03617
1331.438,0.019866
1332.208,0.022058
1332.979,0.023839
1333.749,0.015413
1334.52,0.026442
1335.29,0.032745
1336.061,0.02425
1336.831,0.015413
1337.602,0.016783
1338.372,0.016989
1339.143,0.026031
1339.913,0.02151
1340.684,0.022743
1341.454,0.017674
1342.225,0.019729
1342.995,0.02425
1343.766,0.02425
1344.536,0.015002
1345.307,0.017948
1346.077,0.020962
1346.848,0.01007
1347.618,0.019318
1348.389,0.028771
1349.159,0.021921
1349.93,0.023839
1350.7,0.024113
1351.471,0.02425
1352.241,0.024798
1353.012,0.026853
1353.782,0.030005
1354.553,0.042198
1355.323,0.033156
1356.094,0.017674
1356.864,0.020551
1357.635,0.026031
1358.405,0.01877
1359.176,0.0174
1359.946,0.015961
1360.717,0.021099
1361.487,0.024798
1362.258,0.02151
1363.028,0.019729
1363.799,0.021099
1364.569,0.023017
1365.34,0.020688
1366.11,0.015824
1366.881,0.016989
1367.651,0.020551
1368.422,0.014043
1369.192,0.029594
1369.963,0.04302
1370.733,0.022058
1371.504,0.024798
1372.274,0.019318
1373.045,0.02014
1373.815,0.026442
1374.586,0.020551
1375.356,0.01281
1376.127,0.020551
1376.897,0.028086
1377.668,0.061653
1378.438,0.036718
1379.209,0.013221
1379.979,0.015961
1380.75,0.015208
1381.521,0.022332
1382.291,0.016578
1383.062,0.008837
1383.832,0.015961
1384.603,0.015208
1385.373,0.015961
1386.144,0.015002
1386.914,0.021647
1387.685,0.023291
1388.455,0.026442
1389.226,0.021099
1389.996,0.019455
1390.767,0.023839
1391.537,0.014797
1392.308,0.012057
1393.078,0.014043
1393.849,0.011646
1394.619,0.013427
1395.39,0.01418
1396.16,0.013221
1396.931,0.017948
1397.701,0.021647
1398.472,0.022469
1399.242,0.07234
1400.013,0.084396
1400.783,0.041102
1401.554,0.029594
1402.324,0.031923
1403.095,0.02425
1403.865,0.041102
1404.636,0.031923
1405.406,0.033978
1406.177,0.03754
1406.947,0.030827
1407.718,0.027675
1408.488,0.017194
1409.259,0.019181
1410.029,0.015002
1410.8,0.009659
1411.57,0.011029
1412.341,0.02014
1413.111,0.019455
1413.882,0.018907
1414.652,0.022058
1415.423,0.031649
1416.193,0.027264
1416.964,0.022469
1417.734,0.020962
1418.505,0.019455
1419.275,0.02562
1420.046,0.022743
1420.816,0.013632
1421.587,0.016578
1422.357,0.018907
1423.128,0.020277
1423.898,0.021099
1424.669,0.027264
1425.439,0.034389
1426.21,0.026442
1426.98,0.026031
1427.751,0.020277
1428.521,0.019181
1429.292,0.015619
1430.063,0.016372
1430.833,0.023839
1431.604,0.031923
1432.374,0.028086
1433.145,0.02014
1433.915,0.023291
1434.686,0.024798
1435.456,0.029594
1436.227,0.021921
1436.997,0.021099
1437.768,0.022332
1438.538,0.02562
1439.309,0.02562
1440.079,0.030416
1440.85,0.035074
1441.62,0.038636
1442.391,0.030827
1443.161,0.022469
1443.932,0.024661
1444.702,0.030827
1445.473,0.044116
1446.243,0.073984
1447.014,0.089877
1447.784,0.071792
1448.555,0.098097
1449.325,0.110702
1450.096,0.15016
1450.866,0.561181
1451.637,0.885614
1452.407,0.379236
1453.178,0.168793
1453.948,0.088233
1454.719,0.04576
1455.489,0.035896
1456.26,0.023017
1457.03,0.02836
1457.801,0.016578
1458.571,0.024661
1459.342,0.021099
1460.112,0.032745
1460.883,0.037814
1461.653,0.039732
1462.424,0.039458
1463.194,0.063297
1463.965,0.081108
1464.735,0.053707
1465.506,0.082204
1466.276,0.068778
1467.047,0.037814
1467.817,0.046034
1468.588,0.04302
1469.358,0.033567
1470.129,0.0348
1470.899,0.050419
1471.67,0.046582
1472.44,0.033567
1473.211,0.060831
1473.981,0.082204
1474.752,0.052063
1475.522,0.073436
1476.293,0.098097
1477.063,0.063297
1477.834,0.052063
1478.604,0.031923
1479.375,0.025072
1480.146,0.042472
1480.916,0.035074
1481.687,0.032334
1482.457,0.036718
1483.228,0.059187
1483.998,0.07508
1484.769,0.038636
1485.539,0.021647
1486.31,0.024661
1487.08,0.0348
1487.851,0.049049
1488.621,0.066311
1489.392,0.140295
1490.162,0.173177
1490.933,0.110702
1491.703,0.070696
1492.474,0.0348
1493.244,0.02288
1494.015,0.030416
1494.785,0.034389
1495.556,0.041924
1496.326,0.0348
1497.097,0.033978
1497.867,0.041376
1498.638,0.046034
1499.408,0.051241
1500.179,0.08604
1500.949,0.11673
1501.72,0.041102
1502.49,0.02836
1503.261,0.031923
1504.031,0.028086
1504.802,0.021647
1505.572,0.026853
1506.343,0.02562
1507.113,0.023839
1507.884,0.023428
1508.654,0.017674
1509.425,0.018085
1510.195,0.018496
1510.966,0.016989
1511.736,0.018085
1512.507,0.023428
1513.277,0.028771
1514.048,0.034389
1514.818,0.059187
1515.589,0.057543
1516.359,0.042198
1517.13,0.030827
1517.9,0.018496
1518.671,0.02836
1519.441,0.026031
1520.212,0.024661
1520.982,0.030827
1521.753,0.031649
1522.523,0.029183
1523.294,0.030416
1524.064,0.0348
1524.835,0.035896
1525.605,0.03754
1526.376,0.026031
1527.146,0.033156
1527.917,0.02562
1528.688,0.0348
1529.458,0.034389
1530.229,0.036992
1530.999,0.041376
1531.77,0.023839
1532.54,0.031923
1533.311,0.039458
1534.081,0.033156
1534.852,0.022332
1535.622,0.032334
1536.393,0.049049
1537.163,0.059187
1537.934,0.121662
1538.704,0.102481
1539.475,0.056173
1540.245,0.042472
1541.016,0.021099
1541.786,0.03754
1542.557,0.041376
1543.327,0.029594
1544.098,0.038636
1544.868,0.042198
1545.639,0.062475
1546.409,0.200578
1547.18,0.243325
1547.95,0.859309
1548.721,0.819851
1549.491,0.243325
1550.262,0.201675
1551.032,0.057543
1551.803,0.0696
1552.573,0.039732
1553.344,0.033567
1554.114,0.033156
1554.885,0.035896
1555.655,0.0348
1556.426,0.023291
1557.196,0.042472
1557.967,0.055351
1558.737,0.054529
1559.508,0.038636
1560.278,0.044938
1561.049,0.070696
1561.819,0.129335
1562.59,0.208251
1563.36,0.523915
1564.131,0.872461
1564.901,0.578718
1565.672,0.287167
1566.442,0.18633
1567.213,0.067956
1567.983,0.068778
1568.754,0.061653
1569.524,0.041102
1570.295,0.041376
1571.065,0.03617
1571.836,0.03754
1572.606,0.041102
1573.377,0.04302
1574.147,0.14468
1574.918,0.140295
1575.688,0.050419
1576.459,0.052063
1577.229,0.02562
1578,0.026853
1578.771,0.021236
1579.541,0.021236
1580.312,0.051241
1581.082,0.049597
1581.853,0.043294
1582.623,0.059187
1583.394,0.04028
1584.164,0.023839
1584.935,0.019455
1585.705,0.021236
1586.476,0.027264
1587.246,0.027264
1588.017,0.048501
1588.787,0.049597
1589.558,0.059187
1590.328,0.100289
1591.099,0.064667
1591.869,0.027264
1592.64,0.020688
1593.41,0.017674
1594.181,0.022058
1594.951,0.017194
1595.722,0.030005
1596.492,0.024113
1597.263,0.022332
1598.033,0.018496
1598.804,0.029594
1599.574,0.027675
1600.345,0.008837
1601.115,0.01144
1601.886,0.012399
1602.656,0.016372
1603.427,0.012399
1604.197,0.01007
1604.968,0.009865
1605.738,0.014591
1606.509,0.015619
1607.279,0.016167
1608.05,0.014797
1608.82,0.020277
1609.591,0.022332
1610.361,0.015413
1611.132,0.01281
1611.902,0.020962
1612.673,0.026031
1613.443,0.026031
1614.214,0.022332
1614.984,0.026442
1615.755,0.030416
1616.525,0.046582
1617.296,0.033567
1618.066,0.020688
1618.837,0.016372
1619.607,0.013221
1620.378,0.011029
1621.148,0.017194
1621.919,0.019318
1622.689,0.017194
1623.46,0.033978
1624.23,0.032334
1625.001,0.020277
1625.771,0.017674
1626.542,0.019729
1627.313,0.021236
1628.083,0.029594
1628.854,0.028086
1629.624,0.022332
1630.395,0.016167
1631.165,0.013016
1631.936,0.01281
1632.706,0.013632
1633.477,0.01281
1634.247,0.014386
1635.018,0.013632
1635.788,0.014797
1636.559,0.014797
1637.329,0.023291
1638.1,0.038362
1638.87,0.036992
1639.641,0.030827
1640.411,0.027675
1641.182,0.021647
1641.952,0.025072
1642.723,0.02288
1643.493,0.048227
1644.264,0.102481
1645.034,0.198386
1645.805,0.121662
1646.575,0.084944
1647.346,0.058365
1648.116,0.031238
1648.887,0.0174
1649.657,0.013427
1650.428,0.010276
1651.198,0.008083
1651.969,0.0087
1652.739,0.01007
1653.51,0.017674
1654.28,0.018359
1655.051,0.016372
1655.821,0.014043
1656.592,0.017194
1657.362,0.016372
1658.133,0.012057
1658.903,0.009248
1659.674,0.020688
1660.444,0.02836
1661.215,0.052063
1661.985,0.092069
1662.756,0.109058
1663.526,0.058365
1664.297,0.024524
1665.067,0.020277
1665.838,0.013632
1666.608,0.012057
1667.379,0.015208
1668.149,0.019455
1668.92,0.024113
1669.69,0.048501
1670.461,0.033156
1671.231,0.01281
1672.002,0.015961
1672.772,0.0348
1673.543,0.022743
1674.313,0.013221
1675.084,0.009248
1675.854,0.007707
1676.625,0.011646
1677.396,0.013016
1678.166,0.01144
1678.937,0.010481
1679.707,0.009865
1680.478,0.005515
1681.248,0.005138
1682.019,0.005138
1682.789,0.004727
1683.56,0.00572
1684.33,0.005309
1685.101,0.005926
1685.871,0.00709
1686.642,0.006131
1687.412,0.00709
1688.183,0.009453
1688.953,0.012057
1689.724,0.011646
1690.494,0.010618
1691.265,0.009865
1692.035,0.024113
1692.806,0.032745
1693.576,0.017194
1694.347,0.015961
1695.117,0.010824
1695.888,0.016372
1696.658,0.010481
1697.429,0.005309
1698.199,0.005309
1698.97,0.006302
1699.74,0.006302
1700.511,0.005926
1701.281,0.00572
1702.052,0.004727
1702.822,0.005309
1703.593,0.005515
1704.363,0.006713
1705.134,0.004521
1705.904,0.003357
1706.675,0.00435
1707.445,0.006919
1708.216,0.007296
1708.986,0.00572
1709.757,0.006713
1710.527,0.006508
1711.298,0.010618
1712.068,0.01418
1712.839,0.015824
1713.609,0.008083
1714.38,0.004727
1715.15,0.004521
1715.921,0.004144
1716.691,0.004727
1717.462,0.004144
1718.232,0.007501
1719.003,0.011235
1719.773,0.011646
1720.544,0.018359
1721.314,0.02151
1722.085,0.041376
1722.855,0.02562
1723.626,0.0087
1724.396,0.009042
1725.167,0.008494
1725.938,0.007501
1726.708,0.0087
1727.479,0.006919
1728.249,0.006919
1729.02,0.00709
1729.79,0.006919
1730.561,0.006713
1731.331,0.005926
1732.102,0.005515
1732.872,0.004932
1733.643,0.005309
1734.413,0.005309
1735.184,0.009042
1735.954,0.008289
1736.725,0.006508
1737.495,0.009042
1738.266,0.008837
1739.036,0.008837
1739.807,0.017948
1740.577,0.021099
1741.348,0.063297
1742.118,0.077272
1742.889,0.033978
1743.659,0.039458
1744.43,0.019181
1745.2,0.01144
1745.971,0.0087
1746.741,0.00572
1747.512,0.007296
1748.282,0.008837
1749.053,0.004932
1749.823,0.006302
1750.594,0.006919
1751.364,0.007707
1752.135,0.00709
1752.905,0.005926
1753.676,0.005926
1754.446,0.00709
1755.217,0.00572
1755.987,0.004727
1756.758,0.005309
1757.528,0.009042
1758.299,0.010276
1759.069,0.014386
1759.84,0.015619
1760.61,0.010276
1761.381,0.009659
1762.151,0.005515
1762.922,0.004521
1763.692,0.007501
1764.463,0.010481
1765.233,0.010481
1766.004,0.006131
1766.774,0.004521
1767.545,0.00709
1768.315,0.011029
1769.086,0.022332
1769.856,0.036718
1770.627,0.015619
1771.397,0.006131
1772.168,0.004932
1772.938,0.006713
1773.709,0.00709
1774.479,0.008494
1775.25,0.007707
1776.021,0.008494
1776.791,0.008494
1777.562,0.009042
1778.332,0.009042
1779.103,0.01007
1779.873,0.013427
1780.644,0.01007
1781.414,0.006919
1782.185,0.006919
1782.955,0.006131
1783.726,0.005309
1784.496,0.006302
1785.267,0.005926
1786.037,0.00709
1786.808,0.010824
1787.578,0.010276
1788.349,0.00709
1789.119,0.009248
1789.89,0.009453
1790.66,0.01144
1791.431,0.009865
1792.201,0.004521
1792.972,0.00572
1793.742,0.004727
1794.513,0.002963
1795.283,0.004144
1796.054,0.005138
1796.824,0.004727
1797.595,0.003357
1798.365,0.005309
1799.136,0.007296
1799.906,0.007707
1800.677,0.007912
1801.447,0.008083
1802.218,0.0174
1802.988,0.020688
1803.759,0.012057
1804.529,0.008289
1805.3,0.006131
1806.07,0.007707
1806.841,0.005138
1807.611,0.005515
1808.382,0.004932
1809.152,0.004144
1809.923,0.004932
1810.693,0.00435
1811.464,0.003956
1812.234,0.004521
1813.005,0.005309
1813.775,0.005515
1814.546,0.004521
1815.316,0.003751
1816.087,0.005926
1816.857,0.005309
1817.628,0.003956
1818.398,0.005926
1819.169,0.007296
1819.939,0.013016
1820.71,0.017194
1821.48,0.010481
1822.251,0.008289
1823.021,0.004521
1823.792,0.00572
1824.563,0.009453
1825.333,0.007501
1826.104,0.007296
1826.874,0.010276
1827.645,0.007912
1828.415,0.005926
1829.186,0.006508
1829.956,0.00572
1830.727,0.005138
1831.497,0.005926
1832.268,0.003956
1833.038,0.004521
1833.809,0.009453
1834.579,0.009042
1835.35,0.01281
1836.12,0.009453
1836.891,0.010276
1837.661,0.010481
1838.432,0.020277
1839.202,0.014797
1839.973,0.009248
1840.743,0.010481
1841.514,0.006919
1842.284,0.005515
1843.055,0.005309
1843.825,0.005138
1844.596,0.00572
1845.366,0.007501
1846.137,0.00709
1846.907,0.007912
1847.678,0.00709
1848.448,0.007501
1849.219,0.010824
1849.989,0.019729
1850.76,0.0348
1851.53,0.026442
1852.301,0.015824
1853.071,0.01281
1853.842,0.009865
1854.612,0.010276
1855.383,0.007501
1856.153,0.008289
1856.924,0.006508
1857.694,0.005138
1858.465,0.006919
1859.235,0.007501
1860.006,0.005926
1860.776,0.014386
1861.547,0.015208
1862.317,0.009453
1863.088,0.011235
1863.858,0.007501
1864.629,0.011851
1865.399,0.008494
1866.17,0.006131
1866.94,0.006919
1867.711,0.006713
1868.481,0.009453
1869.252,0.020688
1870.022,0.02836
1870.793,0.015208
1871.563,0.014386
1872.334,0.013838
1873.104,0.011646
1873.875,0.016783
1874.646,0.035348
1875.416,0.054529
1876.187,0.112346
1876.957,0.173177
1877.728,0.121662
1878.498,0.067956
1879.269,0.044664
1880.039,0.018496
1880.81,0.012399
1881.58,0.010276
1882.351,0.008289
1883.121,0.008494
1883.892,0.009865
1884.662,0.01007
1885.433,0.014386
1886.203,0.020551
1886.974,0.015208
1887.744,0.016578
1888.515,0.011235
1889.285,0.01144
1890.056,0.0087
1890.826,0.006713
1891.597,0.005515
1892.367,0.006713
1893.138,0.006508
1893.908,0.005926
1894.679,0.006508
1895.449,0.006131
1896.22,0.004144
1896.99,0.003151
1897.761,0.003151
1898.531,0.003357
1899.302,0.003956
1900.072,0.007296
1900.843,0.008289
1901.613,0.009042
1902.384,0.012605
1903.154,0.014591
1903.925,0.011029
1904.695,0.006919
1905.466,0.004932
1906.236,0.005309
1907.007,0.005515
1907.777,0.005138
1908.548,0.004727
1909.318,0.006131
1910.089,0.004727
1910.859,0.004727
1911.63,0.004144
1912.4,0.003151
1913.171,0.004144
1913.941,0.003151
1914.712,0.00435
1915.482,0.006302
1916.253,0.00709
1917.023,0.00572
1917.794,0.003956
1918.564,0.010276
1919.335,0.011646
1920.105,0.005515
1920.876,0.006131
1921.646,0.003545
1922.417,0.002963
1923.188,0.004727
1923.958,0.005926
1924.729,0.006302
1925.499,0.005926
1926.27,0.008289
1927.04,0.007707
1927.811,0.005515
1928.581,0.006131
1929.352,0.011235
1930.122,0.009865
1930.893,0.009042
1931.663,0.006713
1932.434,0.004727
1933.204,0.007912
1933.975,0.011235
1934.745,0.027264
1935.516,0.042198
1936.286,0.018907
1937.057,0.01144
1937.827,0.008494
1938.598,0.007296
1939.368,0.004144
1940.139,0.002175
1940.909,0.002363
1941.68,0.002757
1942.45,0.003357
1943.221,0.003357
1943.991,0.004727
1944.762,0.003956
1945.532,0.002363
1946.303,0.003151
1947.073,0.002757
1947.844,0.002757
1948.614,0.002963
1949.385,0.00435
1950.155,0.007707
1950.926,0.012399
1951.696,0.01281
1952.467,0.008289
1953.237,0.00572
1954.008,0.003956
1954.778,0.003956
1955.549,0.003956
1956.319,0.002757
1957.09,0.004144
1957.86,0.006713
1958.631,0.005926
1959.401,0.003151
1960.172,0.003545
1960.942,0.005309
1961.713,0.007296
1962.483,0.005515
1963.254,0.004521
1964.024,0.006131
1964.795,0.006302
1965.565,0.006919
1966.336,0.011235
1967.106,0.017948
1967.877,0.057543
1968.647,0.070696
1969.418,0.23346
1970.188,0.226884
1970.959,0.065489
1971.729,0.052885
1972.5,0.015961
1973.271,0.013221
1974.041,0.008289
1974.812,0.005515
1975.582,0.005309
1976.353,0.00572
1977.123,0.006131
1977.894,0.004932
1978.664,0.003751
1979.435,0.003956
1980.205,0.005138
1980.976,0.005309
1981.746,0.00435
1982.517,0.005138
1983.287,0.004727
1984.058,0.007296
1984.828,0.007912
1985.599,0.004521
1986.369,0.004727
1987.14,0.002363
1987.91,0.002569
1988.681,0.002363
1989.451,0.002569
1990.222,0.004144
1990.992,0.004932
1991.763,0.004144
1992.533,0.003751
1993.304,0.00435
1994.074,0.003151
1994.845,0.003151
1995.615,0.003751
1996.386,0.003751
1997.156,0.003357
1997.927,0.003545
1998.697,0.003357
1999.468,0.003357
2000.238,0.004521
2001.009,0.004144
2001.779,0.003545
2002.55,0.003545
2003.32,0.003956
2004.091,0.003545
2004.861,0.003545
2005.632,0.002757
2006.402,0.002363
2007.173,0.002963
2007.943,0.002757
2008.714,0.003545
2009.484,0.003751
2010.255,0.003357
2011.025,0.003545
2011.796,0.004932
2012.566,0.005309
2013.337,0.006508
2014.107,0.006508
2014.878,0.005515
2015.648,0.008289
2016.419,0.005926
2017.189,0.005926
2017.96,0.009659
2018.73,0.022058
2019.501,0.0174
2020.271,0.005926
2021.042,0.004932
2021.813,0.003545
2022.583,0.002569
2023.354,0.003751
2024.124,0.004727
2024.895,0.002569
2025.665,0.003545
2026.436,0.004727
2027.206,0.005926
2027.977,0.00435
2028.747,0.004932
2029.518,0.00435
2030.288,0.010824
2031.059,0.010824
2031.829,0.033156
2032.6,0.030005
2033.37,0.009659
2034.141,0.0087
2034.911,0.004932
2035.682,0.005515
2036.452,0.004727
2037.223,0.003751
2037.993,0.00435
2038.764,0.005138
2039.534,0.00435
2040.305,0.003151
2041.075,0.005138
2041.846,0.004727
2042.616,0.003751
2043.387,0.003956
2044.157,0.003545
2044.928,0.001978
2045.698,0.002963
2046.469,0.004144
2047.239,0.00709
2048.01,0.009865
2048.78,0.012262
2049.551,0.009248
2050.321,0.006131
2051.092,0.004144
2051.862,0.003151
2052.633,0.003751
2053.403,0.004521
2054.174,0.004144
2054.944,0.002175
2055.715,0.003956
2056.485,0.003956
2057.256,0.003751
2058.026,0.003956
2058.797,0.003956
2059.567,0.003545
2060.338,0.004932
2061.108,0.003956
2061.879,0.004144
2062.649,0.004727
2063.42,0.006713
2064.19,0.011235
2064.961,0.012057
2065.731,0.011235
2066.502,0.022743
2067.272,0.016167
2068.043,0.005309
2068.813,0.003545
2069.584,0.006713
2070.354,0.005926
2071.125,0.005138
2071.896,0.004144
2072.666,0.004144
2073.437,0.005138
2074.207,0.003545
2074.978,0.003751
2075.748,0.003357
2076.519,0.004727
2077.289,0.005515
2078.06,0.00572
2078.83,0.008083
2079.601,0.014386
2080.371,0.009865
2081.142,0.006302
2081.912,0.006131
2082.683,0.005309
2083.453,0.004521
2084.224,0.004521
2084.994,0.003956
2085.765,0.003545
2086.535,0.002963
2087.306,0.003151
2088.076,0.004521
2088.847,0.003751
2089.617,0.006302
2090.388,0.005926
2091.158,0.005515
2091.929,0.004521
2092.699,0.003751
2093.47,0.004144
2094.24,0.00435
2095.011,0.005515
2095.781,0.005138
2096.552,0.005926
2097.322,0.005515
2098.093,0.005515
2098.863,0.00435
2099.634,0.0087
2100.404,0.00709
2101.175,0.005515
2101.945,0.004144
2102.716,0.004521
2103.486,0.004932
2104.257,0.003545
2105.027,0.004144
2105.798,0.003751
2106.568,0.003956
2107.339,0.004727
2108.109,0.004144
2108.88,0.007912
2109.65,0.009659
2110.421,0.005515
2111.191,0.003956
2111.962,0.003151
2112.732,0.003151
2113.503,0.007501
2114.273,0.008289
2115.044,0.008083
2115.814,0.013427
2116.585,0.010618
2117.355,0.007912
2118.126,0.007707
2118.896,0.006508
2119.667,0.003151
2120.438,0.00572
2121.208,0.005309
2121.979,0.006919
2122.749,0.006302
2123.52,0.00435
2124.29,0.004727
2125.061,0.006713
2125.831,0.006131
2126.602,0.017948
2127.372,0.028771
2128.143,0.052885
2128.913,0.104125
2129.684,0.060831
2130.454,0.028086
2131.225,0.016372
2131.995,0.009248
2132.766,0.006131
2133.536,0.004932
2134.307,0.004932
2135.077,0.006508
2135.848,0.005926
2136.618,0.005138
2137.389,0.004727
2138.159,0.005926
2138.93,0.005515
2139.7,0.005515
2140.471,0.006302
2141.241,0.006919
2142.012,0.006713
2142.782,0.005926
2143.553,0.00572
2144.323,0.005926
2145.094,0.007912
2145.864,0.008083
2146.635,0.005926
2147.405,0.005926
2148.176,0.006131
2148.946,0.003751
2149.717,0.00435
2150.487,0.003357
2151.258,0.004932
2152.028,0.006919
2152.799,0.005515
2153.569,0.003357
2154.34,0.003357
2155.11,0.003956
2155.881,0.003956
2156.651,0.003545
2157.422,0.00435
2158.192,0.005926
2158.963,0.005138
2159.733,0.002569
2160.504,0.003151
2161.274,0.005138
2162.045,0.0087
2162.815,0.013632
2163.586,0.015961
2164.356,0.014591
2165.127,0.017537
2165.897,0.009865
2166.668,0.007296
2167.438,0.006508
2168.209,0.006713
2168.979,0.010276
2169.75,0.012262
2170.521,0.006508
2171.291,0.005926
2172.062,0.005515
2172.832,0.003151
2173.603,0.005515
2174.373,0.005926
2175.144,0.003357
2175.914,0.006302
2176.685,0.011029
2177.455,0.011851
2178.226,0.018907
2178.996,0.010618
2179.767,0.008083
2180.537,0.006713
2181.308,0.003956
2182.078,0.003751
2182.849,0.004144
2183.619,0.005309
2184.39,0.00572
2185.16,0.004932
2185.931,0.004144
2186.701,0.00435
2187.472,0.011029
2188.242,0.017674
2189.013,0.0348
2189.783,0.048227
2190.554,0.036718
2191.324,0.023291
2192.095,0.016578
2192.865,0.009042
2193.636,0.006302
2194.406,0.007707
2195.177,0.006713
2195.947,0.006131
2196.718,0.005138
2197.488,0.002963
2198.259,0.002757
2199.029,0.003751
2199.8,0.004521
2200.57,0.003151
2201.341,0.002569
2202.111,0.003357
2202.882,0.00572
2203.652,0.005138
2204.423,0.003956
2205.193,0.004932
2205.964,0.004144
2206.734,0.002363
2207.505,0.003751
2208.275,0.002963
2209.046,0.003956
2209.816,0.004144
2210.587,0.004521
2211.357,0.00572
2212.128,0.006131
2212.898,0.005515
2213.669,0.005515
2214.439,0.006302
2215.21,0.00709
2215.98,0.009248
2216.751,0.006302
2217.521,0.006131
2218.292,0.004521
2219.063,0.005138
2219.833,0.004521
2220.604,0.00435
2221.374,0.005138
2222.145,0.006919
2222.915,0.00709
2223.686,0.012399
2224.456,0.014591
2225.227,0.023839
2225.997,0.027264
2226.768,0.020688
2227.538,0.022743
2228.309,0.010618
2229.079,0.012262
2229.85,0.006302
2230.62,0.00572
2231.391,0.004521
2232.161,0.003545
2232.932,0.003956
2233.702,0.005138
2234.473,0.004521
2235.243,0.005515
2236.014,0.00572
2236.784,0.005138
2237.555,0.008289
2238.325,0.006713
2239.096,0.005138
2239.866,0.004521
2240.637,0.006919
2241.407,0.006302
2242.178,0.009248
2242.948,0.008083
2243.719,0.006508
2244.489,0.00435
2245.26,0.004521
2246.03,0.002963
2246.801,0.006302
2247.571,0.007912
2248.342,0.0087
2249.112,0.005515
2249.883,0.005515
2250.653,0.004932
2251.424,0.005515
2252.194,0.007912
2252.965,0.006508
2253.735,0.00572
2254.506,0.006919
2255.276,0.009042
2256.047,0.005138
2256.817,0.004727
2257.588,0.006131
2258.358,0.00709
2259.129,0.007296
2259.899,0.007296
2260.67,0.006508
2261.44,0.011235
2262.211,0.011646
2262.981,0.015413
2263.752,0.02836
2264.522,0.026031
2265.293,0.016167
2266.063,0.008494
2266.834,0.00435
2267.604,0.004521
2268.375,0.006713
2269.146,0.012605
2269.916,0.015619
2270.687,0.007296
2271.457,0.003956
2272.228,0.004727
2272.998,0.007912
2273.769,0.006713
2274.539,0.009865
2275.31,0.010481
2276.08,0.006302
2276.851,0.006131
2277.621,0.006919
2278.392,0.004932
2279.162,0.004727
2279.933,0.006302
2280.703,0.003545
2281.474,0.003545
2282.244,0.004932
2283.015,0.004144
2283.785,0.003357
2284.556,0.004727
2285.326,0.004521
2286.097,0.004932
2286.867,0.006508
2287.638,0.00572
2288.408,0.005309
2289.179,0.005309
2289.949,0.006508
2290.72,0.004144
2291.49,0.005138
2292.261,0.004521
2293.031,0.008083
2293.802,0.007501
2294.572,0.006919
2295.343,0.005515
2296.113,0.003956
2296.884,0.004144
2297.654,0.004144
2298.425,0.005138
2299.195,0.006302
2299.966,0.006508
2300.736,0.006302
2301.507,0.006302
2302.277,0.004521
2303.048,0.006713
2303.818,0.006508
2304.589,0.006508
2305.359,0.00435
2306.13,0.00572
2306.9,0.006919
2307.671,0.0087
2308.441,0.007501
2309.212,0.006508
2309.982,0.006302
2310.753,0.011235
2311.523,0.012057
2312.294,0.010481
2313.064,0.009453
2313.835,0.010618
2314.605,0.011851
2315.376,0.007912
2316.146,0.010824
2316.917,0.015413
2317.688,0.01418
2318.458,0.015619
2319.229,0.008837
2319.999,0.008083
2320.77,0.01007
2321.54,0.013427
2322.311,0.028771
2323.081,0.02425
2323.852,0.014386
2324.622,0.015619
2325.393,0.017194
2326.163,0.01144
2326.934,0.006713
2327.704,0.005138
2328.475,0.005926
2329.245,0.006919
2330.016,0.00572
2330.786,0.006131
2331.557,0.005515
2332.327,0.005138
2333.098,0.004932
2333.868,0.006713
2334.639,0.007501
2335.409,0.00709
2336.18,0.012057
2336.95,0.010618
2337.721,0.027675
2338.491,0.033156
2339.262,0.017948
2340.032,0.014386
2340.803,0.008837
2341.573,0.00572
2342.344,0.005926
2343.114,0.00709
2343.885,0.006302
2344.655,0.006508
2345.426,0.005926
2346.196,0.008494
2346.967,0.008289
2347.737,0.007296
2348.508,0.007296
2349.278,0.005926
2350.049,0.005515
2350.819,0.004932
2351.59,0.006302
2352.36,0.00572
2353.131,0.007707
2353.901,0.0087
2354.672,0.010481
2355.442,0.009865
2356.213,0.021099
2356.983,0.029183
2357.754,0.01281
2358.524,0.009248
2359.295,0.006713
2360.065,0.006919
2360.836,0.006131
2361.606,0.013427
2362.377,0.013838
2363.147,0.012262
2363.918,0.011646
2364.688,0.007296
2365.459,0.007501
2366.229,0.006508
2367,0.006131
2367.771,0.004727
2368.541,0.006919
2369.312,0.010824
2370.082,0.013632
2370.853,0.01007
2371.623,0.017948
2372.394,0.015619
2373.164,0.016578
2373.935,0.010824
2374.705,0.011235
2375.476,0.010618
2376.246,0.006508
2377.017,0.004932
2377.787,0.00709
2378.558,0.00709
2379.328,0.005138
2380.099,0.007296
2380.869,0.007501
2381.64,0.0087
2382.41,0.004521
2383.181,0.008837
2383.951,0.008494
2384.722,0.009659
2385.492,0.008289
2386.263,0.008494
2387.033,0.008837
2387.804,0.006713
2388.574,0.006302
2389.345,0.007707
2390.115,0.004932
2390.886,0.005138
2391.656,0.006302
2392.427,0.00572
2393.197,0.006302
2393.968,0.005309
2394.738,0.003151
2395.509,0.00435
2396.279,0.004932
2397.05,0.004144
2397.82,0.004144
2398.591,0.005515
2399.361,0.006713
2400.132,0.008837
2400.902,0.007501
2401.673,0.011235
2402.443,0.011646
2403.214,0.009659
2403.984,0.008083
2404.755,0.008083
2405.525,0.007296
2406.296,0.004727
2407.066,0.005138
2407.837,0.005138
2408.607,0.006919
2409.378,0.012399
2410.148,0.016167
2410.919,0.026442
2411.689,0.02288
2412.46,0.015824
2413.23,0.015208
2414.001,0.01877
2414.771,0.009248
2415.542,0.008289
2416.313,0.004932
2417.083,0.0087
2417.854,0.011235
2418.624,0.017948
2419.395,0.021647
2420.165,0.007707
2420.936,0.007501
2421.706,0.00572
2422.477,0.006302
2423.247,0.005515
2424.018,0.003357
2424.788,0.003956
2425.559,0.005926
2426.329,0.010618
2427.1,0.012262
2427.87,0.024113
2428.641,0.02425
2429.411,0.017674
2430.182,0.01418
2430.952,0.010276
2431.723,0.006508
2432.493,0.005926
2433.264,0.00709
2434.034,0.005309
2434.805,0.003956
2435.575,0.003357
2436.346,0.004932
2437.116,0.005515
2437.887,0.004727
2438.657,0.003357
2439.428,0.003545
2440.198,0.002757
2440.969,0.002757
2441.739,0.003956
2442.51,0.003151
2443.28,0.001773
2444.051,0.002963
2444.821,0.003357
2445.592,0.002963
2446.362,0.002569
2447.133,0.001773
2447.903,0.002175
2448.674,0.003357
2449.444,0.003151
2450.215,0.003751
2450.985,0.003956
2451.756,0.003751
2452.526,0.003151
2453.297,0.003545
2454.067,0.003545
2454.838,0.003357
2455.608,0.003151
2456.379,0.003357
2457.149,0.004521
2457.92,0.004727
2458.69,0.00572
2459.461,0.00435
2460.231,0.00709
2461.002,0.004727
2461.772,0.002363
2462.543,0.001978
2463.313,0.002569
2464.084,0.001978
2464.854,0.001773